Wavelength_(nm)	S2_1.3uJ(arb.units)	S2_15uJ(arb.units)	S2_400uJ(arb.units)
189.07	0.0025147	0.00190307	4.7567E-4
189.54	0.0025147	0.00190307	4.7567E-4
190.01	0.0025147	0.00190307	4.7567E-4
190.48	-3.738E-4	0.00370427	4.4198E-4
190.95	5.7754E-4	9.8542E-4	0.0018012
191.41	-1.3596E-4	0.00220909	0.00129144
191.88	0.00411215	0.00207312	0.00329638
192.35	0.0021409	0.00316042	0.00224277
192.82	-0.00183529	-0.00224277	-8.1577E-4
193.29	6.7981E-4	4.7567E-4	-0.00400988
193.75	0.00207312	0.00156336	-8.8355E-4
194.22	0.00316042	0.00275253	3.0602E-4
194.69	0.00183529	0.00295668	-0.00224277
195.16	0.00237873	-6.778E-5	0.00125735
195.63	3.738E-4	0.00149518	-0.00421402
196.09	-0.00411215	-0.00482565	0.00312632
196.56	0.00275253	0.00132553	0.00397619
197.03	4.7567E-4	0.0018012	0.00210681
197.5	0.00112139	0.0021409	5.0976E-4
197.96	-0.00115548	8.8355E-4	-7.4759E-4
198.43	-0.00152927	0.00101952	-0.00234505
198.9	0.00169933	0.0032286	0.0039421
199.37	-0.00285481	-8.1577E-4	0.0057092
199.83	9.8542E-4	0.00210681	-0.00156336
200.3	-0.00156336	0.0025147	0.00312632
200.77	0.00118957	-6.4572E-4	0.00200494
201.24	0.00166524	0.00288849	0.00278662
201.7	0.00363608	-0.00105361	0.00485974
202.17	-0.00190307	-6.7981E-4	0.00380614
202.64	0.0014274	0.00163114	5.0976E-4
203.1	-0.00101952	3.0602E-4	2.0374E-4
203.57	-0.00207312	-2.3783E-4	0.00343234
204.04	6.7981E-4	-0.00227686	0.00169933
204.51	0.00309264	0.00268475	0.00329638
204.97	0.00203903	7.135E-4	0.00387432
205.44	-0.00295668	-0.00448595	0.00336456
205.91	0.00271884	0.00282071	3.738E-4
206.37	0.00316042	0.00234505	0.00285481
206.84	-0.00132553	-7.135E-4	0.00509758
207.31	0.00105361	-5.7754E-4	3.397E-4
207.77	0.00176711	0.00105361	3.409E-5
208.24	0.00438408	0.00458782	0.00479156
208.71	0.00200494	-8.4946E-4	-4.4198E-4
209.17	0.00186898	9.5174E-4	-0.00220909
209.64	0.00237873	7.4759E-4	0.00482565
210.1	0.00122326	0.00244692	0.00336456
210.57	0.00244692	0.00152927	4.0789E-4
211.04	-5.0976E-4	9.1764E-4	0.00275253
211.5	-0.00135922	1.7005E-4	0.00108729
211.97	0.00431589	0.00207312	0.00329638
212.44	-4.4198E-4	0.00261657	-4.4198E-4
212.9	5.0976E-4	0.00316042	1.0187E-4
213.37	-3.738E-4	5.4385E-4	0.00370427
213.83	3.0602E-4	0.00254879	0.00173301
214.3	0.00244692	0.00295668	0.00377204
214.77	-1.0187E-4	0.00122326	0.00254879
215.23	5.0976E-4	0.0014274	5.0976E-4
215.7	0.00390801	0.00737444	0.00350012
216.16	0.00241283	0.00292258	0.00516535
216.63	-9.1764E-4	0.00163114	-0.00305855
217.09	0.00122326	-1.0187E-4	1.0187E-4
217.56	6.4572E-4	9.5174E-4	0.00146149
218.03	0.0021409	-0.00244692	-5.0976E-4
218.49	0.0039421	2.7192E-4	0.00302445
218.96	4.7567E-4	0.00169933	0.0018012
219.42	0.00343234	0.00445186	0.00271884
219.89	1.7005E-4	-4.4198E-4	0.0018012
220.35	6.4572E-4	0.00227686	0.0036024
220.82	-0.00241283	0.00431589	0.00207312
221.28	0.0024806	0.00431589	4.4198E-4
221.75	-6.7981E-4	6.4572E-4	0.00105361
222.21	0.00275253	0.00224277	0.00417993
222.68	0.00183529	0.0042818	0.00591295
223.14	7.135E-4	0.00122326	0.0064227
223.61	0.00326229	0.0021409	0.00387432
224.07	6.1163E-4	0.00183529	0.00530132
224.54	-0.00309264	-0.00197085	0.00271884
225	0.00475787	0.0025147	-0.00115548
225.47	6.778E-5	0.00343234	0.00231096
225.93	-0.00118957	7.4759E-4	-0.00312632
226.4	0.0014274	0.00448595	0.00275253
226.86	0.00203903	2.0374E-4	-9.1764E-4
227.33	1.7005E-4	-0.00299036	0.00190307
227.79	0.00149518	0.00231096	-2.3783E-4
228.26	0	0.00285481	9.1764E-4
228.72	-6.778E-5	2.3783E-4	0.00258288
229.18	0.00350012	0.00197085	0.00441776
229.65	0.00353421	0.0032286	0.00139331
230.11	0.00275253	0.00581107	0.00244692
230.58	0.00377204	0.00132553	0.00254879
231.04	5.4385E-4	0.00176711	0.00288849
231.51	0.00258288	0.00299036	-6.7981E-4
231.97	0.0046556	0.00333047	0.00384023
232.43	-0.00244692	0.00152927	0.00183529
232.9	1.0187E-4	0.00193716	0.00336456
233.36	0.0021409	0.00275253	0.00550546
233.83	5.0976E-4	-0.00112139	0.00377204
234.29	0.00122326	4.0789E-4	0.00224277
234.75	8.1577E-4	0.00346643	0.00499571
235.22	-4.0789E-4	0.00254879	0.00244692
235.68	4.0789E-4	0.00601522	0.00244692
236.14	-0.00285481	0.0057092	0.00203903
236.61	-8.1577E-4	0.00652498	0.00336456
237.07	0.00190307	0.00282071	5.7754E-4
237.53	-0.00122326	-0.00183529	0.00122326
238	0.00468969	0.00122326	0.00489343
238.46	0.00530132	0.00672872	0.00183529
238.93	0.00173301	0.00479156	0.00652498
239.39	-7.135E-4	0.00163114	-1.0187E-4
239.85	6.778E-5	0.00159705	0.00169933
240.31	-3.409E-5	0.00516535	0.00231096
240.78	0.00237873	0.00655867	0.00737444
241.24	0.00333047	3.738E-4	0.0039421
241.7	0.00282071	0.0046556	-1.3596E-4
242.17	0.00387432	0.00377204	0.00101952
242.63	-0.00135922	7.8168E-4	0.00241283
243.09	0.0021409	0.00152927	0.00703474
243.56	1.3596E-4	0.00166524	0.00350012
244.02	0.00254879	0.0014274	3.0602E-4
244.48	0.00404397	-6.4572E-4	0.00261657
244.94	-0.00193716	0.00336456	0.00397619
245.41	-0.00146149	0.00210681	5.7754E-4
245.87	0.00122326	-0.00132553	0.0014274
246.33	-0.00176711	-3.397E-4	3.738E-4
246.8	-0.00149518	0.00390801	0.00288849
247.26	-0.00258288	0.00210681	0.00506348
247.72	9.5174E-4	-6.778E-5	0.00217499
248.18	-0.0014274	-0.00407806	-7.135E-4
248.64	-5.4385E-4	0.00506348	0.00404397
249.11	0.00513167	0.00309264	0.00176711
249.57	8.4946E-4	9.5174E-4	0.00370427
250.03	0.00115548	-7.8168E-4	0.00380614
250.49	0.00183529	3.0602E-4	8.1577E-4
250.96	-0.00288849	-4.4198E-4	6.7981E-4
251.42	0.00367017	0.00367017	0.00591295
251.88	6.1163E-4	0.00438408	0.00122326
252.34	2.7192E-4	0.00434999	7.8168E-4
252.8	-1.3596E-4	-7.4759E-4	3.738E-4
253.27	0.00156336	7.4759E-4	-0.00139331
253.73	-2.0374E-4	0.00326229	0.0035683
254.19	-0.00125735	0.0032286	-0.00400988
254.65	0.00122326	0.00122326	0.0042818
255.11	0.00275253	0.0057092	0.00693246
255.57	0.00326229	8.1577E-4	0.00591295
256.04	6.4572E-4	0.00176711	-5.7754E-4
256.5	0.00485974	-0.00186898	0.00129144
256.96	0.00472378	6.4572E-4	0.00258288
257.42	0.0057092	0.00703474	0.00336456
257.88	0.00176711	0.00502939	0.00594704
258.34	-8.8355E-4	2.3783E-4	0.00135922
258.8	0.00244692	9.1764E-4	0.00346643
259.27	-0.00193716	7.135E-4	0.00326229
259.73	3.0602E-4	6.1163E-4	0.00346643
260.19	0.00299036	0.00502939	0.00105361
260.65	0.00268475	0.00441776	0.00706842
261.11	0.00122326	0.00112139	-1.0187E-4
261.57	0.0036024	0.00370427	0.0036024
262.03	-0.00135922	-1.3596E-4	-0.00135922
262.49	0.00234505	0.00234505	0.00336456
262.95	0	-2.0374E-4	0.00275253
263.41	6.7981E-4	-0.00288849	0.0018012
263.88	-0.00156336	-0.00258288	-7.4759E-4
264.34	-5.7754E-4	0.00166524	0.00227686
264.8	5.4385E-4	-2.7192E-4	0.0057433
265.26	1.7005E-4	6.7981E-4	7.8168E-4
265.72	0.00152927	3.0602E-4	0.00448595
266.18	0.0032286	0.00169933	0.0018012
266.64	0.00244692	0.00295668	0.00346643
267.1	0.00370427	-7.8168E-4	0.00197085
267.56	9.8542E-4	0.00220909	0.0053695
268.02	-0.00125735	9.8542E-4	0.00343234
268.48	3.738E-4	0.00169933	0.00312632
268.94	0.00462191	0.00462191	8.4946E-4
269.4	0.00227686	0.00492752	0.00329638
269.86	-0.00118957	-9.8542E-4	0.00319451
270.32	4.0789E-4	3.0602E-4	0.00234505
270.78	2.0374E-4	1.0187E-4	0.00163114
271.24	0.00200494	0.00424812	9.8542E-4
271.7	0.00448595	0.00397619	0.00275253
272.16	0.00309264	-0.00129144	0.00380614
272.62	0.00132553	0.00285481	0.00509758
273.08	0.00176711	-3.738E-4	-0.00220909
273.54	0.00197085	0.00329638	0.00146149
274	0.00295668	-0.00295668	0.00234505
274.46	0.00309264	0.00635492	0.00299036
274.92	0.00496161	0.0032286	0.00333047
275.38	0.00282071	0.00149518	0.00139331
275.84	0.00339825	0.0036024	0.00513167
276.3	4.4198E-4	0.00156336	-2.7192E-4
276.76	0.00146149	-5.7754E-4	0.00268475
277.22	-0.00101952	2.0374E-4	-0.00265066
277.68	-3.397E-4	0.00200494	5.7754E-4
278.14	0.0024806	0.00176711	0.00533541
278.59	-0.00115548	0.00343234	6.778E-5
279.05	0.00472378	-1.7005E-4	0.00329638
279.51	3.397E-4	0.00482565	-6.778E-5
279.97	0.00231096	7.8168E-4	0.00373836
280.43	-0.00101952	-0.00152927	0.00244692
280.89	0.00118957	8.8355E-4	0.00200494
281.35	2.0374E-4	2.0374E-4	0.00132553
281.81	-0.00292258	0.00299036	5.4385E-4
282.27	-0.00193716	-9.1764E-4	0.00285481
282.72	0.00455373	0.00200494	1.7005E-4
283.18	-0.0014274	-0.00448595	0.00387432
283.64	0.00268475	-0.0018012	0.00390801
284.1	-3.397E-4	0.00302445	0.00200494
284.56	0.00282071	0.00312632	0.0032286
285.02	-7.4759E-4	0.00129144	-0.00125735
285.48	2.7192E-4	7.8168E-4	0.00598113
285.93	0.00220909	-4.4198E-4	9.8542E-4
286.39	0.00417993	0.00275253	0.00265066
286.85	6.1163E-4	9.1764E-4	0.00122326
287.31	0.0025147	0.0039421	0.00363608
287.77	0.0024806	0.00125735	0.00207312
288.23	7.4759E-4	4.4198E-4	0.00115548
288.68	0.00285481	0.0035683	0.00326229
289.14	1.0187E-4	0.00224277	0.0042818
289.6	0.00234505	0.00224277	0.00152927
290.06	0.00224277	0.00326229	0.00244692
290.52	0.00166524	0.00584517	0.00737444
290.97	0.00336456	0.00326229	-0.00152927
291.43	0.00210681	5.7754E-4	0.00118957
291.89	0.00312632	-6.4572E-4	6.7981E-4
292.35	0.00319451	0.00146149	0.00370427
292.81	0.00367017	-5.0976E-4	0.00265066
293.26	1.3596E-4	0.00380614	0.00197085
293.72	0.00441776	0.00339825	0.00431589
294.18	0.00720439	0.00434999	0.00720439
294.64	2.3783E-4	0.00380614	0.00472378
295.09	-6.4572E-4	0.00220909	4.7567E-4
295.55	-0.00265066	6.1163E-4	0.00112139
296.01	-3.397E-4	-0.00288849	0.00129144
296.46	0.0024806	-0.00139331	6.4572E-4
296.92	-0.00115548	0.00149518	2.7192E-4
297.38	0.00118957	7.8168E-4	0.00414584
297.84	-0.00319451	0.00190307	0.00261657
298.29	0	4.0789E-4	0.0014274
298.75	0.00373836	0.0046556	0.0046556
299.21	0.0025147	0.0046556	0.00261657
299.66	6.4572E-4	0.00186898	0.00268475
300.12	-6.1163E-4	1.0187E-4	0.00367017
300.58	0.00237873	0.00278662	8.4946E-4
301.03	6.7981E-4	0.00333047	0.00149518
301.49	0.00353421	0.00445186	0.00384023
301.95	0.00424812	-0.0024806	1.7005E-4
302.4	-0.00193716	0.00519945	0.00224277
302.86	6.7981E-4	0.00312632	0.00689877
303.32	5.4385E-4	-0.00241283	-8.8355E-4
303.77	-0.00217499	-0.00329638	6.7981E-4
304.23	-4.0789E-4	-3.0602E-4	0.00713661
304.69	0.00173301	0	0.00275253
305.14	0.00288849	-9.8542E-4	0.00105361
305.6	-8.1577E-4	0.00163114	-0.00132553
306.06	0.00343234	0.00343234	0.00424812
306.51	-5.4385E-4	0.00455373	0.00485974
306.97	0	-0.00101952	0.00193716
307.42	-5.0976E-4	-0.00326229	0.00122326
307.88	8.4946E-4	0.00288849	3.397E-4
308.34	-3.397E-4	6.7981E-4	0.00373836
308.79	0.00159705	0.00231096	0.00649089
309.25	-3.397E-4	-0.00227686	0.00271884
309.7	8.4946E-4	0.00125735	0.00309264
310.16	0.00285481	0.00244692	0.00316042
310.62	-2.0374E-4	0.00438408	0.00305855
311.07	-0.00146149	0.00445186	0.00343234
311.53	-0.00197085	0.00149518	0.00302445
311.98	7.8168E-4	0.00343234	0.00373836
312.44	4.4198E-4	0.00207312	0.00197085
312.89	-0.00380614	-0.00105361	-0.00299036
313.35	0.00914155	0.00638902	0.00771414
313.8	9.8542E-4	0.00434999	0.00129144
314.26	-2.7192E-4	3.409E-5	0.00472378
314.72	0.00757818	0.00227686	0.00268475
315.17	0.00655867	0.00543728	0.00186898
315.63	1.3596E-4	-3.738E-4	0.00329638
316.08	0.00115548	-1.7005E-4	9.5174E-4
316.54	-9.1764E-4	0.00152927	0.00489343
316.99	0.00163114	0.0014274	0.00265066
317.45	-0.00169933	0.0024806	0.00411215
317.9	-0.01471479	-0.0128799	-0.01124835
318.36	0.00292258	0.00169933	0.00424812
318.81	-6.778E-5	0.0036024	0.00451963
319.27	-2.3783E-4	0.00169933	8.8355E-4
319.72	0.00438408	0.0021409	0.00540319
320.17	0.0075104	0.00312632	0.00496161
320.63	0.00271884	0.0025147	0.00169933
321.08	0.00122326	0.00265066	0.00550546
321.54	3.397E-4	5.4385E-4	-4.7567E-4
321.99	-2.3783E-4	0.00414584	2.7192E-4
322.45	0.00203903	6.1163E-4	0.00112139
322.9	2.0374E-4	0.00275253	0.00173301
323.36	-0.00224277	-0.00112139	-0.00152927
323.81	-8.1577E-4	-7.135E-4	8.1577E-4
324.26	0.00489343	-6.1163E-4	7.135E-4
324.72	0.00169933	0.00424812	0.00108729
325.17	0.0042818	0.0042818	0.00805425
325.63	8.1577E-4	-0.00122326	0.00224277
326.08	0.00261657	0.00414584	0.00200494
326.54	0.00203903	0.00132553	0.00275253
326.99	0.00190307	0.00343234	0.00547137
327.44	0.00122326	0.00163114	0.00234505
327.9	4.0789E-4	0.00224277	-5.0976E-4
328.35	2.7192E-4	0.00169933	0.00118957
328.8	0.00108729	0.00343234	0.00353421
329.26	0.00176711	-9.8542E-4	0.00105361
329.71	0.00370427	-0.00424812	-0.00271884
330.17	0.00451963	0.00197085	0.0071707
330.62	1.0187E-4	0.00489343	0.00652498
331.07	-0.00200494	0.00370427	0.00166524
331.53	-3.738E-4	0.00462191	0.00299036
331.98	0.00173301	0	0.00305855
332.43	0.00122326	0.00367017	1.0187E-4
332.89	0.00468969	3.0602E-4	0.00519945
333.34	-0.00159705	0.00288849	0.00227686
333.79	0.00367017	-1.0187E-4	0.00112139
334.25	0.00265066	0.00152927	0.00183529
334.7	0.00176711	-0.00169933	0.00227686
335.15	1.3596E-4	0.00105361	0.00309264
335.6	-5.4385E-4	-0.00115548	0.00445186
336.06	-0.00186898	0.00445186	0.0018012
336.51	0.00129144	-0.00105361	2.7192E-4
336.96	0.00176711	0.00329638	0.00513167
337.42	0.0021409	0.00101952	0.00224277
337.87	0	-0.00173301	0.00122326
338.32	-0.00122326	0.0021409	0.00244692
338.77	0.00183529	7.135E-4	0.00173301
339.23	-0.00163114	-0.0021409	0.0014274
339.68	-0.00118957	0.00166524	0.00288849
340.13	3.0602E-4	-9.1764E-4	0.00377204
340.58	0.00261657	0.00139331	0.00220909
341.04	0.00101952	0.00407806	0.00581107
341.49	0.00210681	0.00149518	-3.409E-5
341.94	0.00285481	0.00367017	0.00305855
342.39	0.00424812	-6.4572E-4	0.00577739
342.85	3.409E-5	0.00125735	4.4198E-4
343.3	0.00156336	0.00553915	0.00186898
343.75	4.0789E-4	-9.1764E-4	6.1163E-4
344.2	-0.00265066	0.00101952	0.00397619
344.65	0.0024806	0.00146149	0.00564143
345.11	7.4759E-4	1.3596E-4	0.00462191
345.56	2.0374E-4	0.00234505	0.00112139
346.01	0.00329638	8.4946E-4	1.3596E-4
346.46	8.1577E-4	0.00285481	0.00397619
346.91	0.00407806	0.00275253	0.00122326
347.36	0.00244692	0.00316042	0.00295668
347.82	8.8355E-4	0.00231096	0.00190307
348.27	-0.00190307	0.00278662	4.4198E-4
348.72	6.4572E-4	0.00431589	0.00288849
349.17	5.4385E-4	0.00217499	0.00197085
349.62	-0.00261657	-8.8355E-4	0.00146149
350.07	0.00139331	0.00190307	0.00271884
350.52	-7.8168E-4	0.00625305	0.00390801
350.98	0.00377204	0.00234505	0.00326229
351.43	0.00268475	0.00492752	0.00564143
351.88	4.4198E-4	3.409E-5	2.3783E-4
352.33	-0.00105361	0.00363608	0.00506348
352.78	-7.8168E-4	0.00513167	0.00523354
353.23	0.00577739	0.00200494	0.00343234
353.68	-4.4198E-4	-0.00156336	-3.397E-4
354.13	3.409E-5	8.4946E-4	-6.7981E-4
354.58	3.738E-4	4.7567E-4	0.00669463
355.04	0.00285481	0.00377204	0.00203903
355.49	0.01175811	0.00411215	0.01196226
355.94	0.00421402	-0.00129144	0.00197085
356.39	6.7981E-4	0.00169933	7.8168E-4
356.84	0.00455373	6.778E-5	0.00424812
357.29	0.00295668	8.1577E-4	0.00479156
357.74	4.7567E-4	0.00108729	0.0018012
358.19	5.4385E-4	-9.8542E-4	0.00207312
358.64	-1.7005E-4	0.00176711	0.00258288
359.09	0.00237873	0.0078842	0.00482565
359.54	0.00431589	0.00258288	0.00686468
359.99	0.00135922	-9.8542E-4	0.0024806
360.44	0.00282071	0.00210681	0.00282071
360.89	8.1577E-4	-7.135E-4	0.00336456
361.34	0.00197085	6.4572E-4	0.00258288
361.79	1.3596E-4	0.00207312	0.00584517
362.24	0.00475787	0.00271884	0.00261657
362.69	0.00652498	0.00530132	0.0014274
363.14	6.4572E-4	0.00197085	0.00237873
363.59	-2.7192E-4	-3.738E-4	0.00390801
364.04	0.00333047	0.00434999	0.00557324
364.49	8.4946E-4	0.00186898	0.00217499
364.94	1.0187E-4	0.00112139	0.00387432
365.39	0.00193716	-0.00122326	0.00244692
365.84	-3.409E-5	-0.00176711	-3.409E-5
366.29	0.00489343	0.00152927	0.00417993
366.74	0.00400988	0.00350012	0.00451963
367.19	0.00282071	8.8355E-4	0.00485974
367.64	5.4385E-4	0.00217499	5.4385E-4
368.09	0.00176711	0.00492752	0.00462191
368.54	5.4385E-4	0.00217499	0.00207312
368.99	0.00441776	0.00156336	0.00819021
369.43	0.00186898	-0.0018012	0.00390801
369.88	0.00479156	0.00336456	0.00152927
370.33	-8.4946E-4	-1.3596E-4	0.00200494
370.78	0.00479156	0.00275253	0.00458782
371.23	0.00156336	0.00421402	-1.7005E-4
371.68	0.00105361	0.00309264	0.00268475
372.13	0.00299036	0.00166524	0.00176711
372.58	3.397E-4	0.00105361	0.00278662
373.03	-4.4198E-4	-2.3783E-4	0.0053695
373.47	7.4759E-4	0.0057433	0.00380614
373.92	2.0374E-4	-0.00285481	-0.00224277
374.37	0.00271884	0.00261657	0.00190307
374.82	0.00288849	0.00156336	0.00166524
375.27	0.00282071	0.00108729	0.00149518
375.72	-0.0014274	7.135E-4	0.00336456
376.17	6.4572E-4	1.3596E-4	-3.738E-4
376.61	0.00159705	0.00282071	0.00261657
377.06	-1.3596E-4	8.8355E-4	0.00598113
377.51	0.00258288	0.00125735	6.4572E-4
377.96	0.0014274	0.00367017	0.0021409
378.41	0.00377204	0.0014274	0.00795198
378.86	2.7192E-4	0.0039421	-0.00166524
379.3	8.4946E-4	0.00176711	3.409E-5
379.75	0.00125735	0.00146149	0.00319451
380.2	-0.00288849	-1.3596E-4	-5.4385E-4
380.65	0.00482565	3.397E-4	0.00176711
381.09	1.7005E-4	0.0018012	8.8355E-4
381.54	4.7567E-4	-0.00390801	8.8355E-4
381.99	-0.00152927	-0.00346643	3.0602E-4
382.44	0.00380614	-5.7754E-4	0.00513167
382.89	-0.00305855	8.1577E-4	-3.0602E-4
383.33	0.00482565	0.00400988	0.00380614
383.78	-2.7192E-4	0.00309264	0.00584517
384.23	0.00397619	8.1577E-4	0.00244692
384.68	4.4198E-4	0.00146149	0.00186898
385.12	1.7005E-4	-1.3596E-4	0.00169933
385.57	0.00183529	-0.00305855	0.00132553
386.02	5.4385E-4	7.4759E-4	-0.00129144
386.47	-8.8355E-4	0.00288849	0.00227686
386.91	0.00108729	0.00424812	0.00506348
387.36	0.00254879	0.00479156	0.00468969
387.81	0.00730666	0.00547137	0.00475787
388.25	7.8168E-4	-0.00299036	8.8355E-4
388.7	0.00414584	0.00526763	0.00129144
389.15	3.409E-5	5.4385E-4	0.00400988
389.59	0.00258288	-7.8168E-4	0.00747631
390.04	-0.0032286	-6.778E-5	0.00125735
390.49	0.00146149	-6.778E-5	0.00329638
390.93	6.7981E-4	0.00129144	2.7192E-4
391.38	8.4946E-4	4.4198E-4	3.397E-4
391.83	0.00329638	0.00543728	0.00615118
392.27	-0.00173301	0.00285481	0.0064227
392.72	0.00339825	0.00227686	0.00288849
393.17	0.00186898	0.00217499	6.4572E-4
393.61	0.00421402	0.00584517	0.00451963
394.06	0.00193716	-4.0789E-4	7.135E-4
394.51	0.00146149	4.4198E-4	-5.7754E-4
394.95	-0.00261657	0.00146149	-6.778E-5
395.4	-2.3783E-4	0.00129144	5.7754E-4
395.85	0.00125735	-0.00200494	0.00166524
396.29	0.00451963	2.3783E-4	0.00513167
396.74	0.00333047	0.00139331	0.00414584
397.18	-0.00316042	-0.00479156	-0.0014274
397.63	0.00186898	0.00339825	0.00105361
398.08	-1.0187E-4	0.00275253	0.00417993
398.52	0.00227686	0.00339825	0.00645679
398.97	-0.00326229	0.00112139	0.00183529
399.41	0.00261657	-2.3783E-4	6.778E-5
399.86	3.738E-4	-2.3783E-4	0.0032286
400.3	0.00217499	-0.0025147	0.00350012
400.75	0.00101952	-9.1764E-4	2.0374E-4
401.19	0.00285481	0.00417993	0.00377204
401.64	-0.00169933	7.4759E-4	-0.00108729
402.09	-4.4198E-4	0.00434999	0.00445186
402.53	0.00295668	0.00326229	0.00336456
402.98	0.00353421	-9.5174E-4	-1.3596E-4
403.42	6.4572E-4	0.00115548	0.00197085
403.87	0.00125735	0.00125735	-0.00108729
404.31	-0.00285481	-0.0021409	0.00448595
404.76	0.0021409	0.00173301	7.135E-4
405.2	0.00149518	0.00169933	2.7192E-4
405.65	0.00190307	0.0025147	0.0039421
406.09	0.00115548	-2.7192E-4	0.00533541
406.54	-0.00234505	-0.00234505	0.00377204
406.98	0.00115548	-6.778E-5	0.00390801
407.43	0.00156336	0.00146149	0.00258288
407.87	0.0021409	0.00346643	0.00438408
408.32	0.00183529	-0.00112139	0.00163114
408.76	0.00234505	0.00132553	0.00295668
409.21	0.00292258	0.0025147	0.00302445
409.65	2.7192E-4	-6.4572E-4	9.8542E-4
410.09	-0.00149518	0.00207312	0.00186898
410.54	-0.00112139	-6.1163E-4	0.00550546
410.98	2.3783E-4	0.00319451	5.4385E-4
411.43	0.00156336	0.00217499	0.00431589
411.87	0.00485974	0.00220909	0.00200494
412.32	9.8542E-4	0.00118957	6.7981E-4
412.76	0.00237873	0.00115548	0.00339825
413.2	0.00156336	9.5174E-4	0.00390801
413.65	0.00176711	0.0024806	0.00472378
414.09	0.00339825	0.00186898	0.00176711
414.54	0.00237873	0.00451963	0.00227686
414.98	0.00125735	0.00472378	0.00339825
415.42	0.00468969	0.00479156	0.00550546
415.87	-1.7005E-4	0.00370427	0.00258288
416.31	0.00200494	-6.4572E-4	0.00485974
416.76	0.00502939	0.00523354	0.00655867
417.2	8.1577E-4	-5.0976E-4	0.00499571
417.64	0.00509758	-0.00234505	-8.1577E-4
418.09	8.1577E-4	5.0976E-4	0.00316042
418.53	-0.0018012	1.3596E-4	0.00105361
418.97	-6.4572E-4	0.00190307	8.8355E-4
419.42	6.1163E-4	-4.0789E-4	0.00377204
419.86	0.00200494	0.00231096	0.00292258
420.3	7.135E-4	-4.0789E-4	0.00417993
420.75	0.00261657	0.0046556	0.00282071
421.19	2.0374E-4	0.0021409	0.00591295
421.63	0.0042818	1.0187E-4	0.00275253
422.08	7.4759E-4	0.00146149	0.00237873
422.52	-0.0039421	-0.0025147	3.409E-5
422.96	-0.00118957	0.00166524	0.00400988
423.4	-0.00118957	9.5174E-4	0.00125735
423.85	-0.00224277	-3.0602E-4	0.00285481
424.29	0.0042818	-7.135E-4	8.1577E-4
424.73	0.00295668	0.00468969	0.00417993
425.18	0.00149518	0.00129144	-5.4385E-4
425.62	-0.00132553	-4.0789E-4	3.0602E-4
426.06	5.4385E-4	-2.7192E-4	3.409E-5
426.5	0.00183529	-1.0187E-4	0.00499571
426.95	-3.409E-5	0.00190307	0.0032286
427.39	0.00295668	4.0789E-4	7.135E-4
427.83	-8.8355E-4	0.00329638	0.00421402
428.27	5.0976E-4	9.1764E-4	6.1163E-4
428.72	-1.0187E-4	-5.0976E-4	0.00468969
429.16	0.00149518	0.00159705	0.00577739
429.6	0.00353421	0.00333047	0.00485974
430.04	-0.0014274	0.00285481	-0.00234505
430.48	0.00186898	3.409E-5	0.00502939
430.93	-8.4946E-4	7.8168E-4	0.00761227
431.37	-7.8168E-4	-5.7754E-4	0.00258288
431.81	9.8542E-4	0.00312632	0.00485974
432.25	0.00278662	0.00370427	0.00329638
432.69	0.00417993	0.00203903	0.00377204
433.14	0.0024806	0.00329638	0.00207312
433.58	0.00407806	0.00132553	0.0021409
434.02	0.00159705	0.00149518	0.00598113
434.46	0.00101952	0.00224277	0.00346643
434.9	-9.5174E-4	-0.00186898	0.00414584
435.34	-1.0187E-4	0.00234505	0.00173301
435.79	0.00363608	-9.5174E-4	0.0067969
436.23	-6.778E-5	-0.00200494	0.00615118
436.67	0.00156336	0.00523354	0.00686468
437.11	5.7754E-4	2.7192E-4	0.00434999
437.55	-6.7981E-4	5.4385E-4	0.00329638
437.99	0.00217499	0.0024806	0.00941347
438.43	0.00271884	-0.00207312	0.00282071
438.87	0.00163114	0.00285481	0.00611709
439.32	0.00309264	0.00288849	0.00533541
439.76	-0.00186898	0.00159705	0.00628715
440.2	-4.4198E-4	-9.5174E-4	0.00434999
440.64	0.00254879	0.00397619	0.00377204
441.08	0.00207312	3.409E-5	0.00778233
441.52	0.00604891	6.4572E-4	0.0057433
441.96	-0.00227686	-0.00135922	0.00547137
442.4	0.00224277	7.135E-4	0.00785011
442.84	0.00156336	0.00513167	0.00706842
443.28	6.7981E-4	-0.00237873	0.00618487
443.72	0.00115548	-8.8355E-4	0.00533541
444.16	9.1764E-4	0.0021409	0.00866588
444.6	0.0036024	0.00156336	0.00492752
445.04	0.00333047	0.00343234	0.00975317
445.48	3.738E-4	0.00190307	0.00598113
445.92	0	4.0789E-4	0.00581107
446.36	-2.3783E-4	-0.00146149	0.00649089
446.8	0.0039421	8.8355E-4	0.00740853
447.24	-0.00156336	-6.4572E-4	0.00434999
447.68	-0.00135922	-0.00125735	0.00730666
448.12	0.00112139	0.00519945	0.00846173
448.56	0.00333047	0.0025147	0.01056895
449	0.00227686	0.00258288	0.00421402
449.44	0.00363608	0.00271884	0.00700064
449.88	-3.738E-4	0.00278662	0.00808794
450.32	6.778E-5	0.0025147	0.01005919
450.76	0.00197085	0.00421402	0.00523354
451.2	0.00581107	0.00397619	0.00907377
451.64	4.0789E-4	9.1764E-4	0.00652498
452.08	0.00329638	0.00319451	0.00543728
452.52	-0.00604891	6.7981E-4	5.7754E-4
452.96	4.4198E-4	0.00217499	0.00390801
453.4	-5.4385E-4	0.00200494	0.00761227
453.84	0.00513167	0.00237873	0.00982136
454.28	-6.778E-5	-0.00190307	0.00819021
454.72	0.00387432	3.0602E-4	0.00734035
455.16	0.00720439	0.00282071	0.01016106
455.6	0.00224277	0.00183529	0.00999101
456.04	0.00227686	0.00237873	0.01053486
456.47	0.00316042	8.1577E-4	0.00693246
456.91	0.0025147	0.00200494	0.00852992
457.35	-0.0024806	4.7567E-4	0.00761227
457.79	0.00241283	0.00547137	0.00791829
458.23	0	0.00295668	0.00785011
458.67	-0.00132553	-7.135E-4	0.00703474
459.11	0.00346643	0.00173301	0.01172443
459.55	0.00336456	0.00163114	0.01498671
459.98	6.4572E-4	0.00299036	0.01094274
460.42	7.8168E-4	0.00475787	0.01209822
460.86	3.397E-4	0.00268475	0.01022924
461.3	0.00407806	-0.00112139	0.00713661
461.74	9.8542E-4	4.7567E-4	0.00985504
462.18	-3.738E-4	0.00125735	0.01135063
462.61	-0.00125735	-3.409E-5	0.01118058
463.05	0.00146149	0.00268475	0.01237015
463.49	0.00329638	0.00217499	0.00686468
463.93	0.00390801	0.00380614	0.010739
464.37	-0.00183529	4.0789E-4	0.01141841
464.8	5.7754E-4	1.7005E-4	0.00577739
465.24	0.00421402	0.00400988	0.01451105
465.68	0.0024806	8.4946E-4	0.01053486
466.12	0.00132553	0.0035683	0.01376346
466.56	0.00217499	0.0057433	0.01267576
466.99	0.00462191	9.5174E-4	0.01257389
467.43	0.00210681	0.0032286	0.01220009
467.87	0.00285481	0.00530132	0.0146807
468.31	-0.00210681	-1.7005E-4	0.0114525
468.74	0.00118957	0.0025147	0.01739954
469.18	0.00513167	-0.00139331	0.01135063
469.62	9.5174E-4	2.3783E-4	0.01838496
470.06	-0.00635492	-0.00125735	0.01566652
470.49	0.00193716	0.00132553	0.01304955
470.93	0.00275253	5.0976E-4	0.02100193
471.37	6.778E-5	0.0039421	0.01862279
471.8	-5.7754E-4	1.3596E-4	0.01389942
472.24	8.4946E-4	0.00299036	0.01634593
472.68	-3.397E-4	0.00424812	0.01678791
473.12	-0.00183529	0.00112139	0.0175355
473.55	-3.397E-4	0.00363608	0.01729767
473.99	0.00234505	5.0976E-4	0.01773924
474.43	2.7192E-4	-3.409E-5	0.01434099
474.86	0.00363608	0.0025147	0.02015207
475.3	0.00275253	0.00377204	0.01977827
475.74	0.00346643	0.00367017	0.02008429
476.17	-0.00135922	3.738E-4	0.01699165
476.61	0.00479156	0.0035683	0.02365259
477.05	5.0976E-4	0.00122326	0.01916664
477.48	0.00197085	0.00166524	0.02083188
477.92	0.00156336	0.00146149	0.02185139
478.35	-0.00207312	0.00343234	0.01831718
478.79	-4.4198E-4	-4.4198E-4	0.02106971
479.23	-0.00169933	0.00299036	0.01930261
479.66	-0.00210681	0.00166524	0.02205513
480.1	-0.00101952	0.00407806	0.02263308
480.54	-0.0018012	0.00176711	0.02144351
480.97	0.00207312	0.00451963	0.02633734
481.41	0.00299036	0.00288849	0.02164765
481.84	-0.00129144	-0.0018012	0.02103562
482.28	0	0.00336456	0.02222519
482.71	-3.0602E-4	0.00173301	0.02497772
483.15	5.0976E-4	0.00152927	0.02507999
483.59	0.00132553	0.00326229	0.02691488
484.02	0.00319451	0.00482565	0.02317693
484.46	1.0187E-4	0.00234505	0.02569162
484.89	-0.00210681	0.00237873	0.0254197
485.33	0.00217499	0.00309264	0.02246302
485.76	1.0187E-4	-0.00377204	0.02518186
486.2	2.0374E-4	0.00611709	0.02711903
486.63	-0.00207312	0.00434999	0.02830819
487.07	2.7192E-4	0.00292258	0.02830819
487.5	-0.0024806	0.00149518	0.02708493
487.94	0.00611709	0.00254879	0.03007529
488.37	0.00254879	0.00387432	0.0272209
488.81	0.00346643	0.0035683	0.03252221
489.24	0.0032286	0.00720439	0.02739054
489.68	0.00417993	0.00316042	0.03017757
490.11	9.1764E-4	0.00101952	0.02844415
490.55	0.00241283	8.8355E-4	0.02841006
490.98	0.00516535	0.0032286	0.03279414
491.42	0.00173301	0.00377204	0.03262408
491.85	0.00200494	0.00129144	0.02769656
492.29	0.00316042	0.00326229	0.03670214
492.72	0.00275253	0.00244692	0.03476498
493.16	-3.409E-5	3.738E-4	0.03289601
493.59	0.00186898	0.00594704	0.03000752
494.03	1.3596E-4	0.0078842	0.03051727
494.46	-5.7754E-4	0.00278662	0.03153679
494.89	0.00190307	7.8168E-4	0.03197836
495.33	-0.00999101	-0.00917564	0.02049218
495.76	9.5174E-4	0.00197085	0.03337167
496.2	3.409E-5	0.0024806	0.03174053
496.63	0.00139331	0.0046556	0.03228438
497.06	0.0032286	6.7981E-4	0.03646431
497.5	0.00424812	0.00384023	0.03554667
497.93	0.00207312	0.00135922	0.03072101
498.37	0.00118957	0.00587926	0.03126486
498.8	0.00207312	0.00146149	0.03490095
499.23	0.00135922	0.00533541	0.03245443
499.67	0.00118957	3.738E-4	0.03452715
500.1	-6.1163E-4	4.0789E-4	0.0293618
500.53	0.00302445	0.00333047	0.03626057
500.97	0.00163114	9.1764E-4	0.03313384
501.4	-0.00265066	0.00285481	0.0329301
501.83	0.00173301	0.00438408	0.03965882
502.27	0.0039421	0.00567511	0.03381365
502.7	0.0053695	0.0032286	0.03646431
503.13	6.7981E-4	0.00139331	0.03809545
503.57	0.00146149	0.00441776	0.03612461
504	-0.00149518	-3.738E-4	0.03765388
504.43	0.0024806	0.00645679	0.04010039
504.87	-6.778E-5	0.00523354	0.03877527
505.3	0.0021409	0.00448595	0.04057646
505.73	0.0021409	8.1577E-4	0.04108622
506.17	-0.0021409	0.00112139	0.0372119
506.6	0.00587926	0.00842805	0.04054237
507.03	6.1163E-4	0.00550546	0.03242034
507.46	0.00441776	0.0024806	0.03622648
507.9	0.00217499	0.00472378	0.03877527
508.33	6.778E-5	0.00598113	0.03850334
508.76	0.00139331	0.00261657	0.03666805
509.19	0.00190307	0.00455373	0.0390131
509.63	0.00275253	0.00438408	0.04230948
510.06	7.135E-4	0.00417993	0.03792581
510.49	0.00241283	0.00577739	0.04013449
510.92	0.00149518	0.0067969	0.0397266
511.36	0.0036024	0.00472378	0.04173194
511.79	-0.00149518	0.00258288	0.03928502
512.22	0.00231096	0.0018012	0.0432949
512.65	0.0057433	0.00645679	0.04173194
513.08	0.00105361	0.00513167	0.04030454
513.52	0.00353421	0.00434999	0.04441669
513.95	5.7754E-4	0.00302445	0.04074611
514.38	0.00139331	6.778E-5	0.0390131
514.81	0.00125735	0.00431589	0.04336309
515.24	0.00135922	0.00543728	0.03857153
515.67	-0.0021409	0.0035683	0.04037232
516.11	0.00135922	3.397E-4	0.0408143
516.54	-0.00193716	0.00122326	0.03782353
516.97	0.00125735	0.00604891	0.0450961
517.4	0.00567511	0.00118957	0.03840147
517.83	-6.7981E-4	0.00686468	0.04428073
518.26	0.00316042	0.00632083	0.04292111
518.69	5.4385E-4	0.00655867	0.04407658
519.13	9.8542E-4	0.00363608	0.04064424
519.56	0.00367017	0.00101952	0.04210574
519.99	0.00173301	0.00285481	0.04679543
520.42	0.00438408	0.0035683	0.04302298
520.85	-5.7754E-4	0.00176711	0.04132405
521.28	0.00424812	0.00761227	0.03870708
521.71	0.00190307	0.00241283	0.03728009
522.14	-9.8542E-4	-0.00139331	0.03398371
522.57	0.00268475	0.00431589	0.04030454
523	2.0374E-4	9.1764E-4	0.03945508
523.43	0.0039421	0.00220909	0.03157088
523.87	0.00299036	0.00288849	0.0268471
524.3	5.7754E-4	0.00812203	0.01668604
524.73	9.8542E-4	0.00139331	0.01107871
525.16	-8.1577E-4	0.00275253	0.00999101
525.59	0.00384023	0.0046556	0.00873366
526.02	-0.01818122	-0.35839046	-0.01767146
526.45	4.0789E-4	7.135E-4	0.00112139
526.88	1.0187E-4	7.135E-4	7.135E-4
527.31	-9.8542E-4	9.5174E-4	0.00400988
527.74	0.00693246	0.00203903	0.00326229
528.17	0.00628715	0.00659276	0.00384023
528.6	0.00390801	0.00350012	0.00472378
529.03	-0.0021409	0.00122326	6.1163E-4
529.46	0.00689877	0.00384023	0.00210681
529.89	0.00210681	-5.4385E-4	0.0039421
530.32	6.4572E-4	0.00156336	0.00227686
530.75	-0.00108729	0.00278662	0.00380614
531.18	-9.1764E-4	-6.1163E-4	0.00132553
531.61	0.00373836	0.00118957	0.00312632
532.04	-0.00149518	0.00105361	0.0024806
532.47	6.778E-5	-7.4759E-4	0.0025147
532.9	8.4946E-4	0.0036024	0.00492752
533.32	0.00146149	0.00217499	0.00768046
533.75	0.00384023	8.8355E-4	0.00516535
534.18	-0.00105361	-0.00197085	0.00139331
534.61	-0.00265066	0.00468969	0.0042818
535.04	8.1577E-4	0.00224277	0.00346643
535.47	-3.397E-4	0.00282071	0.0053695
535.9	0.0014274	0.00407806	0.00132553
536.33	0.00380614	0.00400988	0.00768046
536.76	0.00163114	0.00387432	0.00468969
537.19	0.00203903	0.00152927	0.00683059
537.62	-4.7567E-4	0.0024806	0.00380614
538.04	0.00339825	3.409E-5	0.00472378
538.47	-0.00254879	0.00530132	0.00835986
538.9	0.00421402	4.4198E-4	0.01104461
539.33	-0.00146149	3.738E-4	0.01750141
539.76	0.00271884	0.00496161	0.02647331
540.19	0.00316042	0.00397619	0.03874117
540.62	0.00302445	0.00475787	0.04462043
541.04	0.00146149	0.00696655	0.05060156
541.47	0.00101952	0.00458782	0.05311626
541.9	0.00173301	0.0042818	0.04883446
542.33	0.00207312	0.00431589	0.05447548
542.76	-0.00118957	0.00411215	0.05671865
543.19	0.00166524	0.00339825	0.05947118
543.61	-0.0025147	0.00808794	0.06232599
544.04	3.0602E-4	0.00917564	0.06524857
544.47	0.00152927	0.00530132	0.06463654
544.9	0.00241283	0.00954943	0.06439871
545.33	0.00101952	0.00652498	0.0637193
545.75	-1.3596E-4	0.00598113	0.06470472
546.18	-7.4759E-4	0.00934529	0.06470472
546.61	0.00448595	0.00479156	0.07034574
547.04	0.00231096	0.00812203	0.0740841
547.46	1.3596E-4	0.00778233	0.0744579
547.89	0.00166524	0.00553915	0.07180724
548.32	0.00237873	0.00849583	0.06997195
548.75	5.0976E-4	0.00387432	0.07340429
549.17	0.00390801	0.00849583	0.08383727
549.6	0.00411215	0.00910745	0.08118662
550.03	0.00339825	0.00370427	0.08067686
550.46	0.00125735	0.00737444	0.08557069
550.88	0.00152927	0.00407806	0.08716774
551.31	-0.00305855	0.00367017	0.08808539
551.74	0.00224277	0.01243792	0.09277508
552.16	0.00438408	0.0118263	0.09420248
552.59	-6.7981E-4	0.00971949	0.0919934
553.02	3.409E-5	0.00839395	0.09362454
553.44	-0.00149518	0.00920973	0.09872212
553.87	0.00292258	0.01372936	0.1034459
554.3	0.0021409	0.01090865	0.09960567
554.72	-0.00146149	0.00985504	0.10803372
555.15	0.00288849	0.01379714	0.10901914
555.58	0.00159705	0.01005919	0.11027649
556	-6.778E-5	0.01451105	0.11809291
556.43	0.0014274	0.01233605	0.11520441
556.86	-0.00101952	0.0118263	0.11714117
557.28	-0.00146149	0.01658417	0.12434596
557.71	-0.00237873	0.01056895	0.12842402
558.14	-9.8542E-4	0.01165624	0.13114246
558.56	0.00339825	0.0143069	0.1277783
558.99	5.7754E-4	0.01515677	0.13770153
559.41	0.00146149	0.01532642	0.14123574
559.84	0.00183529	0.01600623	0.14140539
560.27	0.00244692	0.01957453	0.15088704
560.69	0.00509758	0.016822	0.15394559
561.12	0.00547137	0.01648189	0.15523703
561.54	6.778E-5	0.01882694	0.16145599
561.97	-0.00163114	0.01998242	0.16363098
562.39	-0.00350012	0.01913255	0.16675731
562.82	0.00159705	0.02137573	0.17124326
563.25	0.00353421	0.01780743	0.17532132
563.67	0.0025147	0.01964231	0.18296728
564.1	0.0075104	0.02443427	0.19153129
564.52	7.8168E-4	0.02188549	0.18643371
564.95	6.7981E-4	0.02382265	0.19622098
565.37	-0.00139331	0.01981236	0.19812404
565.8	0.00139331	0.02545379	0.21497973
566.22	1.0187E-4	0.02202145	0.21980579
566.65	0.00417993	0.02538561	0.2193979
567.07	-0.00224277	0.02385633	0.23071444
567.5	0.00635492	0.03061914	0.23890425
567.92	-4.4198E-4	0.02708493	0.23954997
568.35	0.0035683	0.0315027	0.25762932
568.77	2.7192E-4	0.02963372	0.26544533
569.2	7.4759E-4	0.02868198	0.27876721
569.62	0.00261657	0.03513918	0.2906272
570.05	0.00547137	0.0390131	0.3124449
570.47	0.00112139	0.0393528	0.32206212
570.9	0.00367017	0.04078021	0.35631734
571.32	0.00455373	0.04849435	0.39492296
571.74	0.00353421	0.05308217	0.4140896
572.17	-0.00186898	0.0529803	0.44681556
572.59	0.00183529	0.05607293	0.49242141
573.02	0.00445186	0.06460285	0.5211379
573.44	0.00258288	0.06905471	0.55423764
573.87	2.3783E-4	0.07231699	0.6127575
574.29	0.00550546	0.07676885	0.62618084
574.71	0.00373836	0.0740841	0.63664792
575.14	0.00781601	0.07907981	0.63195823
575.56	0.00295668	0.07432193	0.62577296
575.99	-5.4385E-4	0.07000604	0.59240128
576.41	0.00336456	0.06738947	0.57204507
576.83	0.00197085	0.0612042	0.55637855
577.26	0.00686468	0.0633455	0.54078021
577.68	0.00112139	0.06004913	0.52178321
578.1	0.00336456	0.05943709	0.50496161
578.53	0.00139331	0.05644673	0.48596462
578.95	0.00265066	0.05882546	0.4788621
579.37	0.0024806	0.0576363	0.47512415
579.8	0.00485974	0.05817974	0.47576987
580.22	0.00200494	0.05695649	0.45976324
580.64	0.00506348	0.05603884	0.46180227
581.07	0.00186898	0.05784004	0.46625413
581.49	0.0035683	0.051893	0.46601629
581.91	0.00441776	0.05202897	0.47553163
582.34	0.00282071	0.05746624	0.47413832
582.76	-4.4198E-4	0.05481559	0.487086
583.18	0.00519945	0.05770408	0.49007677
583.61	0.00316042	0.05709245	0.48192065
584.03	0.00380614	0.06518039	0.50367017
584.45	0.00438408	0.06066075	0.51760328
584.87	-6.4572E-4	0.06164618	0.51328738
585.3	0.00244692	0.06178214	0.51668604
585.72	0.00492752	0.06436502	0.51998242
586.14	0.00200494	0.06246195	0.53367769
586.56	0.00333047	0.06592798	0.51828309
586.99	0.00237873	0.0633455	0.52120567
587.41	6.4572E-4	0.06905471	0.52528374
587.83	0.00220909	0.06113642	0.51930261
588.25	0.00234505	0.06667557	0.53044909
588.68	0.00163114	0.06188401	0.5382996
589.1	-0.00115548	0.05603884	0.51247202
589.52	0.00118957	0.06297171	0.52531783
589.94	0.00523354	0.06670966	0.518249
590.36	0.00584517	0.06456876	0.51906477
590.79	0.0036024	0.06915658	0.50866588
591.21	0.00186898	0.06395713	0.5343575
591.63	0.0025147	0.06623399	0.50737444
592.05	0.00183529	0.06259751	0.51750141
592.47	0.00683059	0.06473881	0.50771414
592.89	0.00169933	0.06174805	0.51583617
593.32	9.1764E-4	0.06290352	0.51974459
593.74	-0.00115548	0.05828161	0.51451105
594.16	0.00353421	0.06205406	0.53214842
594.58	0.00299036	0.06416087	0.51284581
595	0.00367017	0.06677784	0.53605642
595.42	0.00734035	0.06545231	0.53524106
595.84	0.0039421	0.07041393	0.5443826
596.27	0.00506348	0.06939441	0.55162108
596.69	0.0025147	0.06755912	0.56130607
597.11	0.0057433	0.06976821	0.57248705
597.53	0.00350012	0.06905471	0.55209674
597.95	0.00587926	0.07010791	0.56885056
598.37	0.00513167	0.07598717	0.57544332
598.79	4.7567E-4	0.07500175	0.58659021
599.21	0.00509758	0.08156041	0.59559579
599.63	2.0374E-4	0.07146753	0.6041594
600.05	0.00519945	0.07687072	0.61700521
600.47	0.00615118	0.07792433	0.61693743
600.89	0.00890371	0.0744579	0.62162712
601.31	0.00149518	0.07214694	0.62502537
601.74	0.00312632	0.08071095	0.62380211
602.16	0.00509758	0.07972553	0.62771012
602.58	0.00431589	0.08057499	0.64344442
603	0.00377204	0.0819683	0.6259771
603.42	0.00482565	0.07853596	0.63916262
603.84	0.0021409	0.07880788	0.65034319
604.26	0.00285481	0.0819683	0.6406578
604.68	0.00645679	0.08271589	0.64864387
605.1	0.00407806	0.08278407	0.66329088
605.52	0.00417993	0.08512871	0.6671652
605.94	0.00958352	0.08828913	0.66441226
606.36	0.00519945	0.0855366	0.6764427
606.78	0.00761227	0.0859104	0.68170993
607.2	0.00696655	0.08811948	0.68891431
607.62	0.00462191	0.08811948	0.67188857
608.03	0.00302445	0.09192562	0.67549097
608.45	0.00547137	0.08499275	0.66264516
608.87	0.00411215	0.089139	0.67596663
609.29	0.00241283	0.08417738	0.66325678
609.71	0.00519945	0.08655612	0.67735994
610.13	0.00203903	0.08971653	0.67267025
610.55	0.00791829	0.0909061	0.6796709
610.97	0.00812203	0.09039634	0.67294218
611.39	0.00353421	0.08743967	0.68650149
611.81	0.00499571	0.08502684	0.64534749
612.23	0.00479156	0.09491598	0.68959413
612.65	0.00706842	0.09178966	0.66862628
613.07	0.00414584	0.08856105	0.67385982
613.48	0.00350012	0.09474633	0.6774959
613.9	0.00829208	0.09219754	0.66781051
614.32	0.00397619	0.08920677	0.66950984
614.74	0.00662685	0.08635238	0.68429281
615.16	0.00747631	0.0927073	0.65506697
615.58	0.00506348	0.09396465	0.67161705
616	0.00703474	0.09206158	0.65493101
616.41	0.00948125	0.09797453	0.6721605
616.83	0.00316042	0.08890116	0.66696105
617.25	0.00832577	0.0951879	0.68283131
617.67	0.0053695	0.09100797	0.67080128
618.09	0.00778233	0.09617333	0.67790379
618.51	0.00754449	0.09542574	0.6728744
618.92	0.00815612	0.0980764	0.68092825
619.34	0.00988914	0.09899404	0.67134513
619.76	0.00727257	0.09576544	0.66923791
620.18	0.00632083	0.09777078	0.67307814
620.6	0.00849583	0.09811049	0.64884801
621.01	0.00700064	0.09702319	0.65255228
621.43	0.0057092	0.09348858	0.65431938
621.85	0.00951534	0.10025139	0.66526213
622.27	0.00880184	0.09882399	0.66230545
622.68	0.0042818	0.09613964	0.64942555
623.1	0.00944756	0.09549392	0.64113346
623.52	0.01077269	0.10089711	0.65561042
623.94	0.00632083	0.09675127	0.6610481
624.35	0.01114648	0.10361595	0.62825397
624.77	0.00937938	0.0966494	0.64412423
625.19	0.00774823	0.10276608	0.63046265
625.61	0.01056895	0.10313988	0.6320601
626.02	0.00835986	0.09777078	0.62465157
626.44	0.00829208	0.09902813	0.62682656
626.86	0.0117922	0.09539164	0.63093872
627.27	0.00842805	0.10079524	0.62522951
627.69	0.01186039	0.10178066	0.62254476
628.11	0.00795198	0.1023586	0.63413282
628.52	0.01189407	0.10150874	0.61289346
628.94	0.0135934	0.10555271	0.62784608
629.36	0.01257389	0.10463547	0.62213687
629.77	0.01220009	0.10222264	0.62502537
630.19	0.00985504	0.10334403	0.62247658
630.61	0.01189407	0.1063007	0.63562841
631.02	0.01311774	0.1055868	0.62268072
631.44	0.01233605	0.10551902	0.63729364
631.86	0.01644821	0.11065028	0.63324927
632.27	0.01284581	0.11133009	0.63433697
632.69	0.01189407	0.10538306	0.63674979
633.11	0.01461292	0.1102428	0.63875473
633.52	0.01515677	0.11088811	0.62940944
633.94	0.01383123	0.11578195	0.63481263
634.35	0.01692387	0.12774421	0.6435126
634.77	0.01981236	0.12186495	0.62774421
635.19	0.02086597	0.1302589	0.63899256
635.6	0.02011838	0.13736142	0.64721687
636.02	0.02562344	0.14266274	0.66047016
636.43	0.02331289	0.14677489	0.65530481
636.85	0.02565753	0.15248409	0.6678446
637.26	0.02633734	0.15581457	0.66383472
637.68	0.02657518	0.15635841	0.67141291
638.09	0.02450205	0.15336765	0.66730075
638.51	0.0214776	0.14616326	0.63919671
638.93	0.01811304	0.14045406	0.65346952
639.34	0.02467211	0.13997839	0.64392008
639.76	0.01794339	0.13569618	0.62709849
640.17	0.02151169	0.13855099	0.64626513
640.59	0.01954044	0.13545835	0.64194924
641	0.01971049	0.13858508	0.61306311
641.42	0.01916664	0.14629922	0.64198333
641.83	0.01444286	0.13036078	0.60789775
642.25	0.01862279	0.13708949	0.61075215
642.66	0.01971049	0.13216197	0.62478753
643.08	0.01716171	0.13287547	0.62764234
643.49	0.01869098	0.13542426	0.63610407
643.91	0.0193367	0.14290098	0.63797305
644.32	0.02253121	0.13906075	0.63505046
644.73	0.02344845	0.13712359	0.61425268
645.15	0.02157947	0.14463399	0.61697111
645.56	0.01862279	0.14035219	0.61931616
645.98	0.02368668	0.13807532	0.6094948
646.39	0.0236185	0.14779441	0.62900156
646.81	0.02331289	0.1427987	0.60076115
647.22	0.02473989	0.14381821	0.6299192
647.63	0.02191958	0.14905175	0.62607897
648.05	0.02022025	0.14429429	0.60103307
648.46	0.02606542	0.154625	0.62686066
648.88	0.02372037	0.15054693	0.62359796
649.29	0.02460392	0.14939186	0.63263764
649.7	0.02688079	0.15452312	0.62074356
650.12	0.02385633	0.15262006	0.62505946
650.53	0.02647331	0.15442125	0.62971506
650.95	0.02569162	0.15802365	0.63066679
651.36	0.02596355	0.15849932	0.62910343
651.77	0.0293618	0.16638351	0.62414181
652.19	0.02446796	0.15843113	0.62057351
652.6	0.03065324	0.16512617	0.63379312
653.01	0.02457024	0.15883902	0.6216949
653.43	0.02895391	0.165364	0.62475344
653.84	0.02861421	0.17012147	0.62981693
654.25	0.02732277	0.17137922	0.61741309
654.67	0.02871608	0.17766596	0.63307962
655.08	0.02939589	0.17732626	0.64670711
655.49	0.03439119	0.17233055	0.62590892
655.91	0.03235216	0.1789574	0.63345341
656.32	0.0304154	0.18476847	0.63539057
656.73	0.03391552	0.18490444	0.63338523
657.14	0.03503691	0.18745322	0.63155035
657.56	0.03265818	0.18792889	0.63977425
657.97	0.03218251	0.18663745	0.63674979
658.38	0.03734786	0.18344335	0.64059002
658.79	0.03643022	0.19006979	0.61856857
659.21	0.03704225	0.18945816	0.63539057
659.62	0.0332698	0.19180321	0.62713258
660.03	0.03401739	0.19163316	0.61727713
660.44	0.03133264	0.1929246	0.61479653
660.86	0.03585268	0.18663745	0.61727713
661.27	0.03398371	0.18650189	0.61744719
661.68	0.03595455	0.18694347	0.61421859
662.09	0.03843556	0.18330739	0.59987759
662.5	0.03520696	0.18854092	0.60011543
662.92	0.03792581	0.1864678	0.59610555
663.33	0.03320202	0.18429281	0.57914758
663.74	0.0354448	0.17827759	0.58190011
664.15	0.03354173	0.18820082	0.58305559
664.56	0.03445937	0.18024884	0.58315787
664.98	0.03014348	0.18398679	0.58801721
665.39	0.03690629	0.17647639	0.57082181
665.8	0.03377956	0.18099643	0.58614823
666.21	0.03571672	0.17916114	0.55862172
666.62	0.03174053	0.18272944	0.57462795
667.03	0.03680401	0.17729216	0.5769385
667.45	0.03418745	0.18099643	0.57004013
667.86	0.03483317	0.18286541	0.5758853
668.27	0.03476498	0.17790379	0.57826403
668.68	0.0375857	0.17623856	0.56752544
669.09	0.03612461	0.18629775	0.57004013
669.5	0.03337167	0.18058854	0.56269978
669.91	0.02881795	0.18541419	0.5583498
670.32	0.03082289	0.18803117	0.57320055
670.73	0.03384774	0.18616178	0.56062666
671.14	0.03731377	0.18534642	0.58071095
671.56	0.03289601	0.17970499	0.56609803
671.97	0.03731377	0.19227888	0.56327732
672.38	0.03588678	0.18035071	0.55155289
672.79	0.03592046	0.18221969	0.55576692
673.2	0.03632835	0.18395311	0.56127238
673.61	0.03850334	0.18368118	0.54203755
674.02	0.04037232	0.18555016	0.56725351
674.43	0.03571672	0.17702024	0.55107723
674.84	0.04037232	0.18983196	0.53585268
675.25	0.03119709	0.19431791	0.5551212
675.66	0.03663437	0.18344335	0.53496913
676.07	0.03904719	0.1893222	0.54553808
676.48	0.03646431	0.19316243	0.53959064
676.89	0.04013449	0.1939782	0.54948018
677.3	0.03486726	0.18514227	0.53697407
677.71	0.0375857	0.18847274	0.53123077
678.12	0.03581859	0.19047768	0.53089107
678.53	0.03795949	0.19537151	0.51804526
678.94	0.04057646	0.19268676	0.53075511
679.35	0.03812955	0.19278863	0.53024535
679.76	0.03643022	0.19893982	0.52467211
680.17	0.04166376	0.19907578	0.53632835
680.58	0.04210574	0.19523555	0.53860521
680.99	0.03982887	0.19091966	0.52735686
681.4	0.04315894	0.19190508	0.52028803
681.81	0.03693998	0.18976418	0.518249
682.22	0.03891123	0.19550748	0.51379714
682.62	0.03891123	0.18541419	0.51838496
683.03	0.03931912	0.19499772	0.50778233
683.44	0.03466311	0.19554116	0.52443427
683.85	0.04006671	0.19034172	0.51729767
684.26	0.03670214	0.19656068	0.5125057
684.67	0.03524106	0.18510858	0.50615078
685.08	0.03877527	0.18762328	0.50122326
685.49	0.03422154	0.18622997	0.5036024
685.9	0.03993074	0.18113239	0.48810552
686.3	0.04027045	0.18585617	0.49384882
686.71	0.03700816	0.18514227	0.48487733
687.12	0.03836738	0.18925442	0.47716318
687.53	0.04149411	0.18728317	0.47559982
687.94	0.03445937	0.18412275	0.47141989
688.35	0.03602274	0.18711352	0.47410464
688.76	0.03564894	0.18266167	0.47627922
689.16	0.03887714	0.18364709	0.46829316
689.57	0.03646431	0.18092825	0.46537057
689.98	0.03704225	0.17732626	0.46656014
690.39	0.03357582	0.17803975	0.4613607
690.8	0.03445937	0.1774959	0.46479304
691.2	0.03632835	0.17273844	0.45881191
691.61	0.03388143	0.17375795	0.44606797
692.02	0.03812955	0.17922932	0.45184536
692.43	0.04203755	0.17273844	0.44025689
692.84	0.0375857	0.17552506	0.44396116
693.24	0.03707594	0.17460741	0.44018871
693.65	0.03089107	0.17199085	0.44409712
694.06	0.03663437	0.17426771	0.439849
694.47	0.03795949	0.16815062	0.42853247
694.87	0.03486726	0.1732141	0.43094529
695.28	0.03296419	0.16509207	0.41864333
695.69	0.03194468	0.17018965	0.42435253
696.09	0.03690629	0.16913604	0.42717325
696.5	0.02997342	0.16760677	0.42278917
696.91	0.03211433	0.17025743	0.4241147
697.32	0.03612461	0.169272	0.42200789
697.72	0.03643022	0.16325678	0.41079323
698.13	0.03316793	0.16529581	0.39427724
698.54	0.03245443	0.16672322	0.40661329
698.94	0.03714412	0.16458232	0.4144634
699.35	0.03479908	0.15642619	0.39611212
699.76	0.03129896	0.16159195	0.40097187
700.16	0.03218251	0.16043648	0.39910289
700.57	0.03333799	0.17188898	0.40127788
700.98	0.03425523	0.15812552	0.39098086
701.38	0.03343986	0.15047916	0.38557727
701.79	0.03252221	0.16373285	0.38985907
702.2	0.03354173	0.16169382	0.38425214
702.6	0.03452715	0.15666403	0.38248463
703.01	0.03289601	0.1596207	0.37392103
703.42	0.03119709	0.15272193	0.3707943
703.82	0.03734786	0.15448903	0.37663946
704.23	0.03017757	0.15149867	0.37089657
704.63	0.03381365	0.153198	0.36963922
705.04	0.03031313	0.15856709	0.37643572
705.45	0.03167275	0.14891579	0.35689528
705.85	0.03286192	0.14510965	0.36216251
706.26	0.03401739	0.15034319	0.36342026
706.66	0.03296419	0.14979934	0.35726908
707.07	0.03299788	0.15380963	0.3503703
707.47	0.0325563	0.14725056	0.35257939
707.88	0.03252221	0.14935777	0.35071041
708.29	0.03411967	0.14697904	0.35567162
708.69	0.03296419	0.14337664	0.34085496
709.1	0.03248812	0.14993531	0.35281722
709.5	0.03204655	0.14419201	0.34187448
709.91	0.0325904	0.14075967	0.33976767
710.31	0.0304154	0.1460273	0.32698964
710.72	0.03439119	0.14470177	0.33351462
711.12	0.02762878	0.13997839	0.33847623
711.53	0.03194468	0.1438864	0.33728666
711.93	0.02925993	0.14201742	0.32879084
712.34	0.02919174	0.13736142	0.32739752
712.74	0.03612461	0.13695353	0.32902867
713.15	0.02705084	0.13664792	0.32566451
713.55	0.02817223	0.13695353	0.31618286
713.96	0.02919174	0.13409913	0.32311572
714.36	0.03017757	0.13375943	0.3246109
714.76	0.02263308	0.12988511	0.30401686
715.17	0.03116299	0.1356625	0.31397418
715.57	0.02902209	0.13260395	0.30785709
715.98	0.03017757	0.1317204	0.30595402
716.38	0.02762878	0.13141438	0.30432287
716.79	0.03252221	0.13365715	0.29575887
717.19	0.0286483	0.13019113	0.31196883
717.6	0.03194468	0.12655464	0.3038468
718	0.02545379	0.13005516	0.28512214
718.4	0.02959963	0.1292053	0.29110327
718.81	0.02599723	0.12672469	0.28790876
719.21	0.02776475	0.12869554	0.29518092
719.61	0.02375446	0.12427778	0.29117105
720.02	0.0271868	0.12047164	0.28756865
720.42	0.0239582	0.11897646	0.28903015
720.83	0.02885204	0.12142338	0.27801922
721.23	0.02725499	0.12624903	0.28111186
721.63	0.02919174	0.11901055	0.27897096
722.04	0.02626916	0.11710748	0.27146055
722.44	0.02603133	0.117379	0.2652075
722.84	0.02922583	0.118127	0.27084893
723.25	0.02623547	0.11646176	0.26225123
723.65	0.02694897	0.12329235	0.26581913
724.05	0.02242934	0.11500027	0.26660081
724.46	0.02562344	0.11330135	0.27366964
724.86	0.0268471	0.11126232	0.2587848
725.26	0.02616729	0.11435455	0.24719633
725.66	0.0232788	0.11054841	0.25480861
726.07	0.02402639	0.10517891	0.25525058
726.47	0.02531783	0.11116004	0.25684764
726.87	0.02868198	0.11044654	0.24960916
727.28	0.02705084	0.11054841	0.25358535
727.68	0.02225928	0.11156793	0.24675435
728.08	0.02630325	0.10256234	0.24284635
728.48	0.02535192	0.10721794	0.2451573
728.89	0.0261332	0.10575685	0.24440971
729.29	0.02480807	0.10820377	0.23248155
729.69	0.02528374	0.10623252	0.2376469
730.09	0.02188549	0.10956299	0.2380207
730.5	0.02052586	0.10035326	0.23197179
730.9	0.02453614	0.10517891	0.22894733
731.3	0.02344845	0.10225633	0.23876829
731.7	0.02239524	0.10813559	0.22915107
732.1	0.02083188	0.10096529	0.229423
732.51	0.02022025	0.09760073	0.21790231
732.91	0.02514777	0.10385378	0.22629627
733.31	0.02494403	0.09845019	0.22007731
733.71	0.02144351	0.09515381	0.21107172
734.11	0.02263308	0.09777078	0.22194669
734.51	0.02280313	0.0937605	0.2122272
734.92	0.02103562	0.0977026	0.20995034
735.32	0.02334658	0.0966494	0.20675583
735.72	0.02307465	0.09505194	0.20760529
736.12	0.02389042	0.09454218	0.20515878
736.52	0.022905	0.09202749	0.2122272
736.92	0.01964231	0.08958057	0.20549848
737.32	0.01841905	0.09243538	0.20661987
737.73	0.02589536	0.09043003	0.20604233
738.13	0.02018616	0.09257134	0.19441978
738.53	0.01835127	0.09226532	0.1982941
738.93	0.02062814	0.08924087	0.19282273
739.33	0.02331289	0.08764341	0.19550748
739.73	0.02419644	0.08628419	0.18956003
740.13	0.01665195	0.08934274	0.18752141
740.53	0.01743363	0.08349757	0.18728317
740.93	0.02191958	0.08441522	0.18616178
741.33	0.01947266	0.08370131	0.1828995
741.73	0.02137573	0.08224022	0.18378305
742.13	0.01913255	0.08346348	0.18592395
742.53	0.0189629	0.08298781	0.17953494
742.93	0.02385633	0.0826818	0.17698615
743.33	0.01729767	0.08224022	0.17756409
743.73	0.01807935	0.08200239	0.17885553
744.14	0.01920074	0.0801671	0.17416584
744.54	0.0218173	0.07829812	0.17229646
744.94	0.01841905	0.07071994	0.16573779
745.34	0.01947266	0.07666698	0.16974767
745.74	0.01206413	0.0744579	0.16978176
746.14	0.01770555	0.07816216	0.16818471
746.53	0.02297278	0.07547741	0.16998591
746.93	0.02066182	0.07612313	0.16604381
747.33	0.01685569	0.07405001	0.16050425
747.73	0.01627815	0.07459386	0.16369876
748.13	0.01604032	0.07384627	0.15815961
748.53	0.01250611	0.0698023	0.15309572
748.93	0.018249	0.06963224	0.15333396
749.33	0.01260798	0.07021019	0.15625654
749.73	0.01770555	0.07561337	0.16665544
750.13	0.01614219	0.07231699	0.15673221
750.53	0.01352562	0.07418597	0.15024132
750.93	0.01848724	0.07292862	0.15418342
751.33	0.01519045	0.07004013	0.1599604
751.73	0.01607441	0.06868091	0.14932368
752.13	0.0171958	0.07653102	0.15421751
752.52	0.01223418	0.06881688	0.14986753
752.92	0.01954044	0.06633587	0.15105669
753.32	0.01960862	0.07027796	0.15295976
753.72	0.01590436	0.06565605	0.1506829
754.12	0.01971049	0.07139935	0.15612058
754.52	0.01559834	0.06759321	0.14334255
754.92	0.01600623	0.07004013	0.1478285
755.32	0.02028803	0.07146753	0.15037729
755.71	0.01485075	0.06704936	0.14341073
756.11	0.0143069	0.06691381	0.14490591
756.51	0.01587027	0.06796701	0.14147357
756.91	0.01590436	0.06636996	0.14436206
757.31	0.01495262	0.06684562	0.14911994
757.71	0.01440918	0.06783105	0.14643519
758.1	0.01226787	0.06507852	0.13511865
758.5	0.01165624	0.06609803	0.13889069
758.9	0.01746772	0.06303949	0.13838094
759.3	0.01423912	0.06297171	0.13127842
759.69	0.00982136	0.06018468	0.13195823
760.09	0.01549647	0.06045661	0.13651196
760.49	0.01600623	0.06198588	0.13712359
760.89	0.01726358	0.06008281	0.12889969
761.29	0.01376346	0.05709245	0.12570518
761.68	0.01563243	0.05875768	0.12339422
762.08	0.01587027	0.06144244	0.12964728
762.48	0.01529273	0.05699058	0.13070088
762.88	0.0128799	0.05610703	0.12094731
763.27	0.01638002	0.05685462	0.12516133
763.67	0.01491893	0.05998094	0.11860266
764.07	0.01457882	0.05301439	0.11754906
764.46	0.02093375	0.05824793	0.11819478
764.86	0.00910745	0.05539312	0.11085443
765.26	0.01046708	0.05216493	0.11404894
765.65	0.01029702	0.05790782	0.11663141
766.05	0.01260798	0.05185891	0.10833973
766.45	0.01240383	0.04737296	0.11302942
766.85	0.01383123	0.05879137	0.10711607
767.24	0.01131654	0.05097536	0.10755805
767.64	0.01291359	0.04625158	0.10517891
768.04	0.01230196	0.0522668	0.10456728
768.43	0.01196226	0.04825652	0.10351408
768.83	0.0118263	0.0511791	0.10123681
769.22	0.010739	0.04672724	0.0984165
769.62	0.00852992	0.05196078	0.09875621
770.02	0.01084087	0.04835879	0.09821236
770.41	0.00778233	0.04305707	0.10065928
770.81	0.00866588	0.04608152	0.09644525
771.21	0.0103648	0.05094127	0.09294513
771.6	0.00975317	0.04594556	0.08815317
772	0.00941347	0.0465235	0.0984165
772.39	0.01186039	0.04560586	0.09331893
772.79	0.01026293	0.04502832	0.09325074
773.18	0.0078842	0.04183381	0.09015851
773.58	0.01097684	0.04156189	0.08774569
773.98	0.00982136	0.04407658	0.0830219
774.37	0.01009328	0.04383875	0.08828913
774.77	0.01056895	0.03840147	0.08794943
775.16	0.00954943	0.04033863	0.08122071
775.56	0.00604891	0.03683811	0.08149263
775.95	0.0118263	0.03976069	0.08145854
776.35	0.01220009	0.04196977	0.08621641
776.74	0.00982136	0.04050828	0.07996336
777.14	0.01281172	0.03880936	0.07948769
777.53	0.01101052	0.03884304	0.07829812
777.93	0.00659276	0.03768757	0.0733706
778.32	0.01165624	0.03959064	0.07333651
778.72	0.00839395	0.03673624	0.07201098
779.11	0.00594704	0.03500322	0.0704817
779.51	0.01155437	0.0365325	0.07455977
779.9	0.01101052	0.03323571	0.07187502
780.3	0.00971949	0.03530883	0.07537554
780.69	0.00747631	0.03449346	0.07272488
781.09	0.00720439	0.03320202	0.07112742
781.48	0.00655867	0.03734786	0.0737444
781.88	0.0096854	0.03405149	0.07269079
782.27	0.0082239	0.03116299	0.06796701
782.66	0.01124835	0.03459534	0.06589429
783.06	0.00649089	0.0293277	0.06501033
783.45	0.00598113	0.02912396	0.06552009
783.85	0.00883553	0.03065324	0.06684562
784.24	0.006083	0.03350764	0.05573283
784.64	0.0075104	0.02922583	0.06032064
785.03	0.00808794	0.03031313	0.06242786
785.42	0.00696655	0.03051727	0.06609803
785.82	0.00621896	0.02773065	0.06320954
786.21	0.00676281	0.0297015	0.06283575
786.6	0.00744222	0.0286483	0.05729619
787	0.00849583	0.03286192	0.0612042
787.39	0.00567511	0.02881795	0.05950528
787.78	0.00649089	0.02667705	0.06276756
788.18	0.00852992	0.03187649	0.05593697
788.57	0.0057433	0.02776475	0.05682052
788.96	0.00703474	0.02783252	0.05709245
789.36	0.0067969	0.02616729	0.05430583
789.75	0.00523354	0.02715271	0.05539312
790.14	0.00730666	0.02698306	0.0522668
790.54	0.00948125	0.0272209	0.05291252
790.93	0.00591295	0.02650699	0.05495155
791.32	0.01080678	0.02660927	0.05597106
791.72	0.00564143	0.02368668	0.05335409
792.11	0.00903968	0.02412826	0.05165517
792.5	0.00309264	0.02868198	0.05009181
792.89	0.00475787	0.02137573	0.04869849
793.29	0.00764636	0.02620138	0.05107723
793.68	0.00530132	0.02161356	0.05342228
794.07	0.00754449	0.02344845	0.04557176
794.46	0.00666094	0.02134164	0.05304848
794.86	0.00451963	0.02032212	0.04479049
795.25	0.00768046	0.02225928	0.05284433
795.64	0.00479156	0.02191958	0.04659128
796.03	0.00883553	0.02045808	0.04247953
796.43	0.00734035	0.02304096	0.04434851
796.82	0.00669463	0.02239524	0.04339718
797.21	0.00434999	0.02117158	0.04400881
797.6	0.00496161	0.01984646	0.04176563
797.99	0.00764636	0.02283682	0.04485827
798.39	0.00485974	0.02249711	0.04023636
798.78	0.00591295	0.01722948	0.04200387
799.17	0.0035683	0.01743363	0.04149411
799.56	0.00604891	0.02001651	0.04142593
799.95	9.8542E-4	0.01688978	0.0397266
800.34	0.00295668	0.01835127	0.04190159
800.74	0.00237873	0.02011838	0.03755201
801.13	0.0046556	0.0221911	0.03952286
801.52	0.0078842	0.01991423	0.04020267
801.91	0.00934529	0.02096784	0.03911497
802.3	0.00920973	0.01971049	0.0386734
802.69	0.00652498	0.0196764	0.04057646
803.08	0.0100251	0.02083188	0.04030454
803.47	0.0085977	0.02236115	0.04030454
803.87	0.00978727	0.02049218	0.04424664
804.26	0.01587027	0.02484216	0.04614971
804.65	0.01104461	0.02338067	0.0486644
805.04	0.01284581	0.02742464	0.04465453
805.43	0.01420503	0.02786662	0.04499423
805.82	0.012166	0.02348254	0.04346496
806.21	0.01135063	0.02521596	0.04275146
806.6	0.00672872	0.0196764	0.03741605
806.99	0.00689877	0.02055995	0.03626057
807.38	0.00693246	0.01886103	0.03170684
807.77	0.00543728	0.0114525	0.03428932
808.16	0.0057433	0.01695796	0.02837637
808.55	0.00560733	0.01264207	0.02946367
808.94	0.00346643	0.01335557	0.02976968
809.33	0.0039421	0.01342335	0.02820632
809.72	0.00890371	0.01461292	0.02949776
810.11	0.00227686	0.01094274	0.02480807
810.5	0.00390801	0.01369527	0.0311289
810.89	0.0042818	0.01437508	0.0315027
811.28	-0.00400988	0.01301587	0.02728867
811.67	6.778E-5	0.01067082	0.02688079
812.06	0.00224277	0.01447695	0.02895391
812.45	0.00285481	0.01386533	0.0293618
812.84	-8.8355E-4	0.01440918	0.02154538
813.23	0.00197085	0.01440918	0.02786662
813.62	0.00373836	0.01943857	0.03004161
814.01	0.00377204	0.00886962	0.02487585
814.4	0.00186898	0.01247202	0.02633734
814.79	0.00638902	0.01423912	0.03248812
815.18	0.00163114	0.0139672	0.02844415
815.57	0.00200494	0.01250611	0.02535192
815.95	0.00591295	0.01519045	0.02885204
816.34	0.00265066	0.01060304	0.02630325
816.73	0.00414584	0.01230196	0.02351663
817.12	0.00234505	0.00988914	0.02304096
817.51	0.00183529	0.00937938	0.0272209
817.9	0.00275253	0.01427321	0.02599723
818.29	0.00485974	0.01413725	0.02402639
818.68	0.00513167	0.01512267	0.02786662
819.07	0.00309264	0.01094274	0.02032212
819.45	0.00625305	0.01043299	0.01838496
819.84	0.00404397	0.01587027	0.0236185
820.23	0.00207312	0.01186039	0.02205513
820.62	0.00271884	0.01158846	0.02402639
821.01	0.00203903	0.01172443	0.02151169
821.4	0.00326229	0.01366159	0.01865689
821.78	0.00203903	0.00917564	0.01712761
822.17	8.8355E-4	0.01087456	0.02514777
822.56	-4.4198E-4	0.00567511	0.02188549
822.95	-0.00166524	0.01199635	0.01770555
823.34	0.00550546	0.00907377	0.0232447
823.72	0.00159705	0.00700064	0.02035621
824.11	0.00265066	0.00683059	0.0196764
824.5	0.00672872	0.00937938	0.02049218
824.89	-2.0374E-4	0.00886962	0.01620997
825.27	0.00234505	0.01121467	0.01814713
825.66	0.00451963	0.00604891	0.01940448
826.05	-0.00244692	0.00937938	0.01743363
826.44	0.00268475	0.00890371	0.01593845
826.82	0.00713661	0.00988914	0.01804526
827.21	0.00268475	0.00920973	0.01695796
827.6	0.00285481	0.00835986	0.01498671
827.98	0.00288849	0.00737444	0.0178752
828.37	-0.00169933	0.00829208	0.01675382
828.76	0.00632083	0.00927751	0.02273495
829.15	0.00135922	0.00543728	0.01726358
829.53	0.0057433	0.00747631	0.01685569
829.92	5.7754E-4	0.006083	0.01474888
830.31	8.8355E-4	0.00914155	0.01688978
830.69	0.00625305	0.00839395	0.01614219
831.08	6.4572E-4	0.00655867	0.01389942
831.47	0.00451963	0.00533541	0.01491893
831.85	-6.7981E-4	0.00513167	0.01237015
832.24	0.00468969	0.00540319	0.01600623
832.63	0.00234505	0.00856401	0.01284581
833.01	9.5174E-4	0.00839395	0.01389942
833.4	0.00282071	0.01056895	0.01434099
833.78	0.00397619	0.01050076	0.01641411
834.17	0.00377204	0.00754449	0.01243792
834.56	0.00353421	0.00547137	0.01536051
834.94	0.00353421	0.00638902	0.01566652
835.33	0.00336456	0.00683059	0.00917564
835.71	9.1764E-4	0.01070491	0.01651599
836.1	1.7005E-4	0.00353421	0.01189407
836.49	0.00499571	0.00795198	0.01519045
836.87	0.00234505	0.00540319	0.01121467
837.26	0.0053695	0.0046556	0.01474888
837.64	0.00193716	0.00683059	0.01386533
838.03	7.135E-4	0.00632083	0.01192817
838.41	0.0032286	0.00924342	0.01362749
838.8	0.00122326	0.00397619	0.01253979
839.18	0.00329638	0.00920973	0.01328738
839.57	-0.0053695	0.00156336	-0.00547137
839.95	0.00479156	0.01039889	0.01304955
840.34	8.8355E-4	0.00557324	0.01260798
840.73	0.00309264	0.00666094	0.01522454
841.11	0.00258288	0.0085977	0.01186039
841.5	0.00203903	0.00652498	0.00988914
841.88	0.00377204	0.00611709	0.01152028
842.26	0.00258288	0.00655867	0.01226787
842.65	-9.1764E-4	0.00581107	0.01090865
843.03	-0.00152927	0.00367017	0.00611709
843.42	0.00397619	0.00723848	0.01366159
843.8	5.4385E-4	0.00676281	0.01257389
844.19	0.00438408	0.00632083	0.01080678
844.57	1.0187E-4	0.00489343	0.01050076
844.96	0.00217499	0.00513167	0.01043299
845.34	0.00407806	0.00835986	0.01019515
845.73	0.00207312	0.00676281	0.01318551
846.11	0.00183529	0.00519945	0.01009328
846.49	0.00190307	0.00587926	0.01118058
846.88	0.00377204	0.00499571	0.01253979
847.26	0.0024806	0.00564143	0.01267576
847.65	0.00244692	0.0035683	0.00734035
848.03	0.00146149	0.0036024	0.01298177
848.41	0.00159705	0.00404397	0.00873366
848.8	0.00397619	0.00723848	0.00754449
849.18	0.0018012	0.00883553	0.01138432
849.56	0.00411215	0.00370427	0.00920973
849.95	-0.00271884	0.00115548	0.01033112
850.33	0.00122326	0.0042818	0.01233605
850.71	-6.7981E-4	9.5174E-4	0.00706842
851.1	0.00384023	0.00200494	0.01026293
851.48	4.7567E-4	0.00414584	0.00914155
851.86	0.00241283	0.00475787	0.01485075
852.25	0.00166524	0.00625305	0.00839395
852.63	0.00387432	0.00305855	0.00958352
853.01	-7.4759E-4	0.00363608	0.01056895
853.4	8.1577E-4	0.0057092	0.00703474
853.78	-4.4198E-4	0.00720439	0.01230196
854.16	6.778E-5	0.00689877	0.0103648
854.55	0.00278662	0.00543728	0.01033112
854.93	0.00727257	0.00553915	0.01186039
855.31	-0.00197085	0.00231096	0.00587926
855.69	0.00458782	0.00785011	0.00734035
856.08	0.0039421	0.00475787	0.01077269
856.46	0.00652498	0.00846173	0.01233605
856.84	0.00122326	0.00723848	0.0132537
857.22	-5.7754E-4	0.00217499	0.0078842
857.61	0.00448595	0.00367017	0.01029702
857.99	0.00319451	0.00319451	0.00727257
858.37	0.00302445	0.00404397	0.00598113
858.75	0.0032286	0.00169933	0.01026293
859.13	4.4198E-4	0.00125735	0.0071707
859.52	5.0976E-4	0.0021409	0.00795198
859.9	0.00108729	0.00333047	0.0053695
860.28	-3.409E-5	0.00598113	0.00424812
860.66	0.00400988	4.4198E-4	0.0085977
861.04	0.00183529	0.0014274	0.01090865
861.43	0.00132553	0.00173301	0.00774823
861.81	-6.4572E-4	0.00557324	0.00659276
862.19	-0.00220909	0.00421402	0.00686468
862.57	0.00156336	0.00747631	0.01012697
862.95	0.0036024	0.00625305	0.00778233
863.33	0.00166524	0.00594704	0.00676281
863.71	-0.00285481	0.00499571	0.00448595
864.1	7.8168E-4	1.7005E-4	0.00761227
864.48	0.00468969	0.0021409	0.00509758
864.86	-4.7567E-4	0.00125735	0.0036024
865.24	0.0024806	0.00829208	0.01053486
865.62	0.00105361	0.00666094	0.00146149
866	0.00265066	0.00295668	0.01121467
866.38	0.0025147	3.738E-4	0.00353421
866.76	0.00373836	0.00445186	0.00944756
867.14	-0.00261657	-0.00129144	0.00676281
867.52	0.00485974	0.00241283	0.00587926
867.9	-0.00224277	0.00734035	0.00611709
868.28	0.00275253	0.00326229	0.00203903
868.67	0.00312632	0.0018012	0.00434999
869.05	0.0024806	0.00339825	0.00472378
869.43	0.00523354	0.00747631	0.00737444
869.81	0.00265066	0.00621896	0.00581107
870.19	0.00316042	0.00132553	0.0064227
870.57	9.8542E-4	0.00292258	0.00587926
870.95	0.00397619	0.00540319	0.00530132
871.33	-0.00397619	-0.00224277	9.1764E-4
871.71	0.00203903	0.00234505	0.00458782
872.09	0.00163114	0.00458782	0.00489343
872.47	-3.0602E-4	0.00336456	0.00499571
872.85	7.8168E-4	0.00231096	0.00628715
873.23	0.00122326	4.0789E-4	0.00367017
873.61	3.397E-4	0.00390801	0.00237873
873.99	9.8542E-4	0.00649089	0.00547137
874.36	6.1163E-4	0.0057092	0.00509758
874.74	0.00125735	0.0024806	0.00482565
875.12	-0.00159705	0.00350012	0.00288849
875.5	0.00268475	0.00166524	0.00757818
875.88	0.00390801	0.00299036	0.00268475
876.26	1.3596E-4	0.00125735	0.00604891
876.64	0.00197085	0.00217499	0.00533541
877.02	-0.00118957	0.00278662	0.00635492
877.4	0.00295668	0.00305855	0.00866588
877.78	0.00166524	-2.7192E-4	0.0057433
878.16	0.00183529	0.00387432	0.0064227
878.54	-0.00271884	-5.7754E-4	0.00441776
878.91	0.0035683	0.00632083	0.00367017
879.29	9.1764E-4	0.00285481	0.00723848
879.67	6.1163E-4	0.0064227	0.00550546
880.05	-5.7754E-4	0.00615118	0.00727257
880.43	3.409E-5	0.00299036	0.00645679
880.81	0.00115548	0.00390801	0.00808794
881.19	0.00152927	0.00621896	0.00550546
881.56	0.00380614	0.00268475	0.00910745
881.94	0.00261657	0.00638902	0.00710251
882.32	-2.0374E-4	-0.00112139	0.00244692
882.7	7.4759E-4	0.00176711	0.00400988
883.08	0.0032286	0.00210681	0.00638902
883.45	2.7192E-4	0.00475787	0.00271884
883.83	0.00254879	0.00254879	0.00417993
884.21	2.0374E-4	0.00234505	0.01009328
884.59	0.00275253	0.00550546	0.00785011
884.97	0.00112139	0.00316042	0.00285481
885.34	3.397E-4	0.00441776	0.00869997
885.72	0.00200494	0.00139331	0.00547137
886.1	0.00268475	0.00441776	0.0036024
886.48	0.00132553	0.00203903	0.0042818
886.85	0.00669463	9.8542E-4	0.00526763
887.23	6.778E-5	0.00292258	0.00139331
887.61	0.00152927	0.00183529	0.00224277
887.98	0.00523354	0.00115548	0.00502939
888.36	-0.00101952	-0.0035683	0.00101952
888.74	0.0036024	9.5174E-4	0.00533541
889.12	-6.1163E-4	0.00122326	0.00305855
889.49	6.778E-5	0.00169933	0.00353421
889.87	0.00118957	9.8542E-4	0.00292258
890.25	-2.3783E-4	0.00343234	0.00261657
890.62	-3.409E-5	-9.5174E-4	0.00190307
891	0.00210681	3.738E-4	0.00333047
891.38	0.00265066	0.00346643	0.00152927
891.75	-6.1163E-4	9.1764E-4	-4.0789E-4
892.13	8.4946E-4	0.00472378	0.00411215
892.51	0.00112139	0.00540319	0.0064227
892.88	0.0046556	8.8355E-4	0.00526763
893.26	-0.00115548	-0.00319451	1.7005E-4
893.64	0.00244692	0.00621896	0.00112139
894.01	-0.00183529	3.0602E-4	0.00672872
894.39	0.00197085	0.00594704	0.00768046
894.76	-5.0976E-4	0.0042818	0.00265066
895.14	0.00149518	0.00455373	0.0039421
895.52	3.409E-5	-0.0025147	0.0024806
895.89	0.00441776	0.00299036	0.00971949
896.27	0.00200494	3.738E-4	0.00363608
896.64	-0.00217499	-3.409E-5	0.00445186
897.02	0.00146149	0.00237873	0.00492752
897.39	0.00244692	0.00346643	0.00468969
897.77	0.00217499	0.00533541	0.00197085
898.15	0.00112139	7.135E-4	0.00377204
898.52	9.8542E-4	-0.00166524	-2.3783E-4
898.9	0.00404397	0.00353421	0.0053695
899.27	0.00173301	0	0.00285481
899.65	0.00329638	0.00451963	0.00604891
900.02	0.00139331	0.00241283	0.0053695
900.4	8.4946E-4	0.00339825	0.00166524
900.77	0.0021409	-1.0187E-4	0.00407806
901.15	0.0021409	-7.135E-4	-0.00234505
901.52	0.00336456	0.00275253	0.00305855
901.9	-0.00254879	-0.00122326	0
902.27	0.00132553	0.00275253	0.00316042
902.65	8.1577E-4	9.1764E-4	0.00132553
903.02	0.00139331	9.8542E-4	0.00118957
903.4	6.7981E-4	0.0018012	0.00271884
903.77	-4.4198E-4	0.00241283	0.00118957
904.14	0.00288849	3.397E-4	0.00339825
904.52	3.409E-5	0.00268475	0.0057433
904.89	0.00207312	-0.00200494	1.3596E-4
905.27	4.4198E-4	1.3596E-4	0.00390801
905.64	0.00343234	-4.4198E-4	3.738E-4
906.02	0.00197085	0.00237873	0.00268475
906.39	4.0789E-4	0.00193716	0.00163114
906.76	0.00254879	5.0976E-4	0.00397619
907.14	-2.3783E-4	0.0018012	4.7567E-4
907.51	0.00203903	-7.135E-4	0.00193716
907.89	-6.7981E-4	-0.00210681	0.00676281
908.26	0.00101952	5.0976E-4	0.00265066
908.63	0.00265066	0.00591295	0.00275253
909.01	0.00108729	0.0025147	6.7981E-4
909.38	0.00163114	0.00224277	0.00560733
909.75	0.00108729	3.738E-4	0.00261657
910.13	0.00156336	-7.8168E-4	0.00421402
910.5	0.00326229	6.1163E-4	0.00224277
910.87	7.8168E-4	-7.4759E-4	0.006083
911.25	0.00190307	0.00139331	0.0032286
911.62	0.00370427	0.00258288	0.00186898
911.99	-3.409E-5	6.778E-5	0.00129144
912.37	0.00244692	0.00336456	9.1764E-4
912.74	0.00254879	0.00305855	0.00540319
913.11	-0.00468969	-0.00101952	-0.00132553
913.49	-9.5174E-4	2.7192E-4	7.8168E-4
913.86	0.00115548	0.00278662	0.00299036
914.23	9.1764E-4	0.00295668	0.00316042
914.6	-3.409E-5	0.00220909	0.00384023
914.98	0.00462191	0.00523354	0.00462191
915.35	0.00254879	0.00295668	0.00397619
915.72	0.00367017	0.00101952	9.1764E-4
916.09	0.00309264	0.00166524	0.00156336
916.47	0.00492752	0.00237873	0.00217499
916.84	0.00305855	-0.00193716	0.00530132
917.21	-0.00231096	-2.7192E-4	0.00268475
917.58	0.00319451	0.00431589	0.00411215
917.95	0.00489343	0.00397619	0.00285481
918.33	-6.1163E-4	-3.0602E-4	0.00448595
918.7	0.00231096	6.7981E-4	0.00363608
919.07	3.0602E-4	-0.00132553	0.00305855
919.44	-2.0374E-4	0.00163114	0.0021409
919.81	0.0024806	-8.8355E-4	0.00166524
920.19	-1.3596E-4	8.8355E-4	0.00282071
920.56	0.00353421	0.00516535	0.00414584
920.93	0.00169933	0.00373836	0.0039421
921.3	3.409E-5	0.00197085	4.4198E-4
921.67	-0.00217499	0.00261657	0.00271884
922.04	1.7005E-4	0.00434999	0.0032286
922.41	-0.00112139	9.1764E-4	0.00163114
922.79	0.00295668	7.135E-4	0.00244692
923.16	7.4759E-4	0.00176711	0.00299036
923.53	0.00584517	0.00217499	0.00339825
923.9	0.00186898	0.00105361	0.00666094
924.27	0.00288849	0.00125735	0.0036024
924.64	0.00373836	0.00302445	0.00343234
925.01	0.00604891	4.4198E-4	0.00431589
925.38	0.00200494	0.00220909	0.0018012
925.75	0.00350012	0.00207312	0.00533541
926.12	0.00122326	2.0374E-4	0.00101952
926.49	-0.00169933	6.4572E-4	0.00105361
926.86	-0.0025147	-7.8168E-4	0.00176711
927.24	-0.00200494	0.00278662	0.00217499
927.61	4.0789E-4	0.00132553	-3.0602E-4
927.98	0.00159705	0.0025147	0.00638902
928.35	7.135E-4	9.1764E-4	0.00112139
928.72	7.4759E-4	5.4385E-4	0.00227686
929.09	-0.0024806	2.7192E-4	9.8542E-4
929.46	3.409E-5	7.4759E-4	-0.00149518
929.83	0.00312632	0.00200494	0.0025147
930.2	0.00159705	0.00700064	0.0032286
930.57	-0.00108729	0.00227686	0.00329638
930.94	0.006083	0.00312632	0.00231096
931.31	-0.00118957	0.00380614	0.00207312
931.68	0.00288849	8.4946E-4	-0.00108729
932.05	0.00244692	6.1163E-4	-0.0014274
932.41	3.738E-4	1.7005E-4	0.00271884
932.78	-4.0789E-4	0.00152927	3.0602E-4
933.15	0.00139331	-5.4385E-4	0.00424812
933.52	0.00326229	-2.0374E-4	0.00152927
933.89	0.00581107	6.1163E-4	0.00265066
934.26	-0.00258288	3.738E-4	0.00261657
934.63	-5.0976E-4	0.00183529	2.0374E-4
935	9.1764E-4	-0.00101952	-0.00193716
935.37	0.00417993	0	6.1163E-4
935.74	0.00224277	0.00203903	4.0789E-4
936.11	0.00526763	-2.3783E-4	0.0039421
936.48	0.00129144	0.00159705	0.00567511
936.84	7.4759E-4	-0.00118957	0.00156336
937.21	-4.7567E-4	3.397E-4	2.3783E-4
937.58	0.00183529	0.00336456	0.00581107
937.95	6.1163E-4	0.00316042	0.00173301
938.32	0.00135922	0.00156336	0.00278662
938.69	9.8542E-4	0.0032286	3.738E-4
939.06	-0.00166524	-0.00105361	2.7192E-4
939.42	0.00312632	0.00292258	0.00149518
939.79	0.00173301	0.00387432	9.1764E-4
940.16	0.00282071	0.00149518	0.00190307
940.53	0	0.00173301	0.00152927
940.9	-0.00105361	8.8355E-4	9.8542E-4
941.26	0.00241283	0.00455373	0.00343234
941.63	0.00200494	-0.00166524	3.738E-4
942	0.00186898	0.00370427	0.00370427
942.37	3.738E-4	0.00220909	0.00190307
942.74	0.0032286	0.00190307	0.00445186
943.1	-0.00237873	0.00190307	0.00220909
943.47	0.00193716	0.00193716	0.00152927
943.84	0.00336456	0.0042818	0.00591295
944.21	0.00278662	0.00492752	0.00268475
944.57	0.00220909	0.00384023	0.00200494
944.94	0.00434999	-2.3783E-4	0.00333047
945.31	0.00404397	0.00343234	0.00282071
945.67	0.00781601	0.00210681	0.00659276
946.04	0.00135922	0.0036024	0.00186898
946.41	8.8355E-4	-0.00135922	0.00220909
946.78	-0.00152927	0.00183529	0.0014274
947.14	-0.00227686	8.8355E-4	1.7005E-4
947.51	0.00489343	0.00530132	0.00305855
947.88	0.00326229	0.00193716	0.00183529
948.24	5.4385E-4	0.00268475	0.00299036
948.61	0.00278662	0.00288849	-3.738E-4
948.98	0.0014274	0.00285481	0.0042818
949.34	-0.00149518	-0.00190307	4.4198E-4
949.71	-1.7005E-4	3.397E-4	0.00462191
950.08	1.3596E-4	-0.00384023	0.00197085
950.44	0.00156336	0.00329638	0.00472378
950.81	0.00115548	-1.7005E-4	-0.00169933
951.17	0.00275253	0.00152927	-2.0374E-4
951.54	-0.0014274	-0.00244692	-0.00417993
951.91	-4.7567E-4	0.00400988	-7.8168E-4
952.27	0.00101952	3.0602E-4	0.0057092
952.64	0.00598113	0.00190307	0.00373836
953	0.00234505	-7.135E-4	0.00407806
953.37	0.00540319	-8.1577E-4	0.00489343
953.74	-0.00105361	9.8542E-4	3.738E-4
954.1	0.00299036	0.00207312	6.4572E-4
954.47	-2.3783E-4	0.00302445	-5.4385E-4
954.83	-6.4572E-4	0.00231096	0.00434999
955.2	0.00567511	0.00108729	0.00414584
955.56	0.00210681	-5.4385E-4	0.00302445
955.93	0.0024806	0.00166524	5.4385E-4
956.29	0.00492752	0.00227686	0.00329638
956.66	7.4759E-4	0.00227686	0.0024806
957.02	-4.0789E-4	-0.00275253	-6.1163E-4
957.39	-0.00258288	-0.00146149	9.8542E-4
957.75	0.00193716	-0.00193716	-0.00132553
958.12	2.0374E-4	0.00173301	0.00244692
958.48	0.00163114	0.00193716	0.0014274
958.85	0.00227686	0.00431589	-6.7981E-4
959.21	7.8168E-4	2.7192E-4	-5.4385E-4
959.58	9.5174E-4	0.00370427	-6.778E-5
959.94	6.7981E-4	-0.00288849	0.00241283
960.31	7.135E-4	-2.0374E-4	-4.0789E-4
960.67	-2.0374E-4	0.00203903	0.00479156
961.04	9.8542E-4	-4.4198E-4	-4.4198E-4
961.4	-0.00132553	0.00193716	0
961.77	3.738E-4	3.738E-4	3.738E-4
962.13	0.00234505	8.1577E-4	0.00193716
962.49	0.0025147	1.7005E-4	0.00190307
962.86	0.0014274	0.00152927	9.1764E-4
963.22	-2.3783E-4	0.00200494	0.00159705
963.59	-5.0976E-4	0.00254879	0.00173301
963.95	-4.0789E-4	7.135E-4	-6.1163E-4
964.31	0.00448595	0.0021409	0.00377204
964.68	0.00496161	0.00384023	0.00108729
965.04	-0.00703474	-0.00224277	0
965.4	0.0018012	0.00231096	6.778E-5
965.77	0.0018012	-3.397E-4	0.00169933
966.13	2.7192E-4	0.00373836	0.00149518
966.5	0.00224277	-0.00224277	5.0976E-4
966.86	0.00441776	0.00339825	4.4198E-4
967.22	5.7754E-4	-0.00125735	0.00333047
967.59	0.00237873	9.5174E-4	7.4759E-4
967.95	0.00350012	0.00135922	4.4198E-4
968.31	0.00292258	0.00312632	0.00210681
968.67	-0.00190307	0.00329638	3.409E-5
969.04	-1.7005E-4	-0.00129144	-8.8355E-4
969.4	-0.00169933	-7.8168E-4	0.00197085
969.76	2.3783E-4	3.409E-5	0.00462191
970.13	0.0025147	1.7005E-4	0.00149518
970.49	0.00159705	0.00190307	0.0039421
970.85	7.135E-4	0.00101952	4.0789E-4
971.21	0.00190307	0.00118957	0.00129144
971.58	-6.4572E-4	-0.00135922	0.00261657
971.94	0.00156336	0.00278662	2.3783E-4
972.3	-0.00112139	-2.0374E-4	6.1163E-4
972.66	0.00200494	0.00455373	0.00159705
973.03	0.0032286	0.00261657	-7.4759E-4
973.39	3.738E-4	-3.409E-5	-0.00105361
973.75	0.00146149	0.00594704	0.00502939
974.11	7.8168E-4	0.00169933	0.00292258
974.47	-0.00241283	-0.00271884	0.00227686
974.84	5.7754E-4	0.00312632	0.00118957
975.2	0.00146149	6.4572E-4	-2.7192E-4
975.56	3.397E-4	5.4385E-4	0.00288849
975.92	0.0032286	0.00333047	0.00190307
976.28	-0.00139331	-5.7754E-4	-6.778E-5
976.64	8.8355E-4	-8.4946E-4	9.8542E-4
977.01	0.00129144	-1.3596E-4	7.8168E-4
977.37	-8.8355E-4	0.00288849	0.00564143
977.73	0.00350012	0.00156336	4.4198E-4
978.09	0.00125735	0.00105361	-0.00108729
978.45	4.4198E-4	-3.738E-4	-0.00210681
978.81	-0.00115548	-0.00186898	0.00129144
979.17	-4.0789E-4	4.0789E-4	0.00367017
979.54	0.00333047	0.00312632	0.00587926
979.9	0.00139331	2.7192E-4	0.00159705
980.26	1.0187E-4	-9.1764E-4	0.00183529
980.62	0.00353421	-0.00319451	0.00149518
980.98	2.3783E-4	3.409E-5	4.4198E-4
981.34	0.0025147	5.7754E-4	0.00200494
981.7	7.4759E-4	0.00390801	0.00105361
982.06	-0.00387432	0.00479156	0.00611709
982.42	-0.0025147	-0.00118957	7.4759E-4
982.78	-0.00305855	-0.00316042	7.135E-4
983.14	0.00203903	0.00560733	0.00326229
983.5	0.00404397	0.00129144	6.778E-5
983.86	6.778E-5	6.778E-5	0.00220909
984.22	0.00285481	0.00326229	0.00244692
984.58	-0.00285481	3.0602E-4	0.0014274
984.94	0.00105361	5.4385E-4	6.4572E-4
985.3	7.135E-4	4.0789E-4	0.00509758
985.66	0.00384023	1.7005E-4	6.7981E-4
986.02	0.00350012	0.00553915	0.00757818
986.38	0.0021409	0.00326229	0.0014274
986.74	0.0018012	5.7754E-4	7.8168E-4
987.1	3.0602E-4	-3.0602E-4	4.0789E-4
987.46	0.00125735	-0.0018012	3.409E-5
987.82	2.3783E-4	0.00370427	0.00451963
988.18	-1.0187E-4	-0.00152927	0.00407806
988.54	0.00115548	0.00156336	6.4572E-4
988.9	0.00482565	0.00513167	0.00278662
989.26	0.00159705	0.00455373	0.00159705
989.62	0.00292258	-8.4946E-4	0.00261657
989.98	7.8168E-4	-9.5174E-4	3.738E-4
990.34	-0.00190307	0.0036024	0.00105361
990.69	6.7981E-4	-0.00135922	4.7567E-4
991.05	-0.00326229	0.00305855	-0.0014274
991.41	-3.0602E-4	0.00193716	-4.0789E-4
991.77	0.00367017	0.00234505	0.00265066
992.13	8.8355E-4	0.00139331	-0.00115548
992.49	0.00363608	0.0032286	0.00577739
992.85	0.00139331	-7.4759E-4	0.00108729
993.21	-0.00105361	0.00210681	0.00108729
993.56	0.00275253	-0.00244692	-0.00122326
993.92	3.397E-4	0.00207312	0.00237873
994.28	-2.7192E-4	0.00421402	0.00299036
994.64	9.5174E-4	0.00258288	0.00370427
995	2.0374E-4	-0.00163114	9.1764E-4
995.36	8.1577E-4	0.00193716	-1.0187E-4
995.71	0.00299036	-4.7567E-4	9.5174E-4
996.07	0.00557324	0.00434999	0.00108729
996.43	0.00282071	0.0018012	0.0053695
996.79	-0.00207312	0.00434999	0.00139331
997.14	0.00462191	0.00309264	0.00166524
997.5	0.00380614	0.00186898	0.00176711
997.86	0.0032286	0.00220909	0.0032286
998.22	0.0046556	0.00353421	0.00496161
998.58	0.00183529	-7.135E-4	0.00173301
998.93	3.0602E-4	-4.0789E-4	0.0021409
999.29	-9.1764E-4	0.00438408	0.00254879
999.65	0.00299036	0.00329638	0.00217499
1000	-0.00115548	0.00200494	-9.5174E-4
1000.36	8.1577E-4	0.00101952	0.00224277
1000.72	0.00118957	5.7754E-4	0.00169933
1001.08	0.0024806	0.00227686	0.00135922
1001.43	0.00149518	0.00261657	0.0025147
1001.79	0.00492752	0.00492752	0.00197085
1002.15	0.00268475	0.0036024	0.00217499
1002.5	0.00363608	0.00108729	0.00118957
1002.86	0.00380614	-3.738E-4	0.00146149
1003.22	0.0039421	3.738E-4	-0.00207312
1003.57	6.7981E-4	-0.00115548	-4.4198E-4
1003.93	0.00373836	0.00108729	0.00363608
1004.29	0.00424812	0.00353421	0.00384023
1004.64	0.00560733	0.00387432	0.00336456
1005	7.4759E-4	4.4198E-4	-5.7754E-4
1005.36	0.00200494	-1.3596E-4	0.00312632
1005.71	0.00156336	0.00105361	0.00339825
1006.07	0.00227686	0.00146149	6.4572E-4
1006.42	0.00353421	-0.00502939	-3.409E-5
1006.78	0.00373836	0.0046556	6.7981E-4
1007.14	1.3596E-4	-0.00220909	2.3783E-4
1007.49	0.00346643	-8.1577E-4	0.0035683
1007.85	0.00200494	0.00445186	-0.00125735
1008.2	-1.0187E-4	0.0021409	0.00152927
1008.56	8.4946E-4	0.00400988	0.00482565
1008.91	0.00200494	0.00373836	0.00149518
1009.27	0.00135922	-0.00261657	0.00217499
1009.62	4.7567E-4	-0.00421402	-0.00217499
1009.98	0.0025147	7.8168E-4	0.00333047
1010.34	-0.0021409	-5.0976E-4	5.0976E-4
1010.69	-4.4198E-4	0.00169933	0.00343234
1011.05	-0.0024806	-0.00553915	0.00241283
1011.4	0.00118957	4.7567E-4	0.00353421
1011.76	0.00163114	0.00336456	4.0789E-4
1012.11	-0.00159705	2.3783E-4	-0.00169933
1012.47	-0.00105361	2.7192E-4	0.0053695
1012.82	0.0036024	0.00390801	0.00645679
1013.18	0.00108729	0.00129144	0.00363608
1013.53	3.0602E-4	0.00316042	7.135E-4
1013.88	-0.00234505	-0.00224277	0
1014.24	0.00384023	0.00312632	0.00404397
1014.59	0.00353421	0.00292258	0.00312632
1014.95	0.00479156	-8.1577E-4	0.00367017
1015.3	0.00367017	2.0374E-4	0.00326229
1015.66	-0.00350012	-0.00115548	0.00200494
1016.01	-1.0187E-4	0.00224277	0
1016.37	-0.00105361	8.8355E-4	0.0018012
1016.72	-0.00149518	0.00288849	-5.7754E-4
1017.07	0.00431589	0.00339825	0.00350012
1017.43	3.738E-4	0.00414584	4.7567E-4
1017.78	7.135E-4	0.0035683	0.0057092
1018.13	5.0976E-4	0.00305855	0.00193716
1018.49	-0.00254879	-0.00265066	-9.1764E-4
1018.84	-1.0187E-4	2.0374E-4	0.00152927
1019.2	0.00489343	5.0976E-4	0.00132553
1019.55	0.00268475	8.4946E-4	-7.8168E-4
1019.9	0.00115548	7.4759E-4	0.0024806
1020.26	0.00190307	-0.00237873	-0.00197085
1020.61	0.00231096	0.0039421	0.00516535
1020.96	-0.00234505	0.00132553	0.00173301
1021.32	-6.7981E-4	2.3783E-4	8.4946E-4
1021.67	5.7754E-4	0.00200494	8.8355E-4
1022.02	0.00112139	0.00468969	0.00387432
1022.38	-0.00316042	-0.00336456	-0.00152927
1022.73	0.00224277	0.0014274	0.00407806
1023.08	0.00343234	0.00210681	0.0032286
1023.43	3.738E-4	0.00373836	0.00302445
1023.79	-0.00421402	-0.00278662	-0.00258288
1024.14	-3.409E-5	-0.00237873	-0.00207312
1024.49	-5.0976E-4	3.0602E-4	0.00203903
1024.84	0.00326229	0.00305855	0.00275253
1025.2	0.0039421	0.00108729	0.00384023
1025.55	-0.00146149	-5.4385E-4	0.00302445
1025.9	0.00285481	6.1163E-4	2.0374E-4
1026.25	-0.00115548	0.00557324	0.00384023
1026.61	-0.00271884	0.00105361	0.00309264
1026.96	3.409E-5	0.00207312	0.00176711
1027.31	-0.00224277	0.0021409	0.00163114
1027.66	0.00118957	-9.5174E-4	-3.397E-4
1028.01	0.00462191	6.4572E-4	0.00350012
1028.37	-0.0032286	2.3783E-4	0.00186898
1028.72	1.7005E-4	-0.00186898	0.00129144
1029.07	3.397E-4	-7.8168E-4	-0.0018012
1029.42	0.00350012	0.00166524	0.00319451
1029.77	-0.0014274	3.0602E-4	7.135E-4
1030.12	0.00370427	0.00400988	0.00278662
1030.48	1.0187E-4	0.00234505	0.00183529
1030.83	8.1577E-4	-0.00122326	-7.135E-4
1031.18	8.8355E-4	0.00363608	0.00190307
1031.53	0.00387432	0.00203903	0.00367017
1031.88	4.7567E-4	8.8355E-4	0.00190307
1032.23	4.0789E-4	-0.00112139	5.0976E-4
1032.58	0.00176711	-2.7192E-4	3.409E-5
1032.93	0.0032286	0.00353421	4.7567E-4
1033.28	0.00434999	0.00526763	3.738E-4
1033.64	6.7981E-4	-9.5174E-4	-4.4198E-4
1033.99	0.00169933	0.00231096	0.00414584
1034.34	0.00169933	0.00231096	0.00414584
1034.69	0.00169933	0.00231096	0.00414584
